Created as New Dataset,Sample 007 By irlear Date Monday, July 06 2009
cm-1,A
4000.00,0.0397
3999.50,0.0397
3999.00,0.0397
3998.50,0.0397
3998.00,0.0397
3997.50,0.0397
3997.00,0.0397
3996.50,0.0397
3996.00,0.0397
3995.50,0.0397
3995.00,0.0397
3994.50,0.0397
3994.00,0.0397
3993.50,0.0397
3993.00,0.0397
3992.50,0.0397
3992.00,0.0397
3991.50,0.0396
3991.00,0.0396
3990.50,0.0396
3990.00,0.0396
3989.50,0.0396
3989.00,0.0396
3988.50,0.0396
3988.00,0.0396
3987.50,0.0396
3987.00,0.0396
3986.50,0.0396
3986.00,0.0395
3985.50,0.0395
3985.00,0.0395
3984.50,0.0395
3984.00,0.0395
3983.50,0.0395
3983.00,0.0395
3982.50,0.0395
3982.00,0.0395
3981.50,0.0395
3981.00,0.0395
3980.50,0.0395
3980.00,0.0395
3979.50,0.0395
3979.00,0.0395
3978.50,0.0395
3978.00,0.0395
3977.50,0.0395
3977.00,0.0395
3976.50,0.0394
3976.00,0.0394
3975.50,0.0394
3975.00,0.0394
3974.50,0.0394
3974.00,0.0394
3973.50,0.0394
3973.00,0.0394
3972.50,0.0394
3972.00,0.0394
3971.50,0.0394
3971.00,0.0394
3970.50,0.0394
3970.00,0.0394
3969.50,0.0394
3969.00,0.0394
3968.50,0.0393
3968.00,0.0393
3967.50,0.0393
3967.00,0.0393
3966.50,0.0393
3966.00,0.0393
3965.50,0.0393
3965.00,0.0393
3964.50,0.0393
3964.00,0.0393
3963.50,0.0393
3963.00,0.0393
3962.50,0.0393
3962.00,0.0393
3961.50,0.0392
3961.00,0.0392
3960.50,0.0392
3960.00,0.0392
3959.50,0.0393
3959.00,0.0393
3958.50,0.0393
3958.00,0.0393
3957.50,0.0392
3957.00,0.0392
3956.50,0.0392
3956.00,0.0392
3955.50,0.0392
3955.00,0.0392
3954.50,0.0392
3954.00,0.0392
3953.50,0.0392
3953.00,0.0392
3952.50,0.0392
3952.00,0.0392
3951.50,0.0392
3951.00,0.0392
3950.50,0.0391
3950.00,0.0391
3949.50,0.0391
3949.00,0.0391
3948.50,0.0391
3948.00,0.0391
3947.50,0.0391
3947.00,0.0391
3946.50,0.0391
3946.00,0.0391
3945.50,0.0391
3945.00,0.0392
3944.50,0.0392
3944.00,0.0391
3943.50,0.0391
3943.00,0.0390
3942.50,0.0390
3942.00,0.0390
3941.50,0.0390
3941.00,0.0391
3940.50,0.0391
3940.00,0.0392
3939.50,0.0392
3939.00,0.0392
3938.50,0.0391
3938.00,0.0391
3937.50,0.0391
3937.00,0.0391
3936.50,0.0391
3936.00,0.0391
3935.50,0.0391
3935.00,0.0390
3934.50,0.0391
3934.00,0.0391
3933.50,0.0390
3933.00,0.0390
3932.50,0.0389
3932.00,0.0389
3931.50,0.0389
3931.00,0.0389
3930.50,0.0389
3930.00,0.0390
3929.50,0.0390
3929.00,0.0390
3928.50,0.0390
3928.00,0.0390
3927.50,0.0391
3927.00,0.0391
3926.50,0.0391
3926.00,0.0390
3925.50,0.0390
3925.00,0.0390
3924.50,0.0389
3924.00,0.0389
3923.50,0.0389
3923.00,0.0389
3922.50,0.0390
3922.00,0.0390
3921.50,0.0390
3921.00,0.0390
3920.50,0.0390
3920.00,0.0390
3919.50,0.0390
3919.00,0.0390
3918.50,0.0390
3918.00,0.0389
3917.50,0.0389
3917.00,0.0390
3916.50,0.0389
3916.00,0.0389
3915.50,0.0389
3915.00,0.0390
3914.50,0.0390
3914.00,0.0391
3913.50,0.0391
3913.00,0.0391
3912.50,0.0391
3912.00,0.0391
3911.50,0.0391
3911.00,0.0391
3910.50,0.0391
3910.00,0.0391
3909.50,0.0391
3909.00,0.0391
3908.50,0.0391
3908.00,0.0391
3907.50,0.0391
3907.00,0.0391
3906.50,0.0390
3906.00,0.0390
3905.50,0.0389
3905.00,0.0388
3904.50,0.0388
3904.00,0.0389
3903.50,0.0391
3903.00,0.0390
3902.50,0.0388
3902.00,0.0388
3901.50,0.0390
3901.00,0.0390
3900.50,0.0389
3900.00,0.0387
3899.50,0.0388
3899.00,0.0390
3898.50,0.0390
3898.00,0.0389
3897.50,0.0390
3897.00,0.0391
3896.50,0.0392
3896.00,0.0392
3895.50,0.0392
3895.00,0.0392
3894.50,0.0392
3894.00,0.0391
3893.50,0.0391
3893.00,0.0391
3892.50,0.0390
3892.00,0.0389
3891.50,0.0389
3891.00,0.0390
3890.50,0.0391
3890.00,0.0391
3889.50,0.0391
3889.00,0.0392
3888.50,0.0392
3888.00,0.0392
3887.50,0.0392
3887.00,0.0390
3886.50,0.0389
3886.00,0.0388
3885.50,0.0389
3885.00,0.0389
3884.50,0.0390
3884.00,0.0389
3883.50,0.0390
3883.00,0.0391
3882.50,0.0392
3882.00,0.0391
3881.50,0.0390
3881.00,0.0390
3880.50,0.0390
3880.00,0.0390
3879.50,0.0390
3879.00,0.0391
3878.50,0.0391
3878.00,0.0392
3877.50,0.0393
3877.00,0.0393
3876.50,0.0393
3876.00,0.0393
3875.50,0.0392
3875.00,0.0392
3874.50,0.0391
3874.00,0.0391
3873.50,0.0391
3873.00,0.0391
3872.50,0.0391
3872.00,0.0391
3871.50,0.0392
3871.00,0.0392
3870.50,0.0391
3870.00,0.0391
3869.50,0.0391
3869.00,0.0392
3868.50,0.0391
3868.00,0.0392
3867.50,0.0392
3867.00,0.0393
3866.50,0.0393
3866.00,0.0392
3865.50,0.0392
3865.00,0.0393
3864.50,0.0393
3864.00,0.0393
3863.50,0.0392
3863.00,0.0391
3862.50,0.0392
3862.00,0.0392
3861.50,0.0393
3861.00,0.0394
3860.50,0.0394
3860.00,0.0394
3859.50,0.0395
3859.00,0.0396
3858.50,0.0396
3858.00,0.0395
3857.50,0.0395
3857.00,0.0395
3856.50,0.0395
3856.00,0.0394
3855.50,0.0391
3855.00,0.0390
3854.50,0.0396
3854.00,0.0402
3853.50,0.0401
3853.00,0.0397
3852.50,0.0394
3852.00,0.0395
3851.50,0.0398
3851.00,0.0399
3850.50,0.0399
3850.00,0.0398
3849.50,0.0399
3849.00,0.0400
3848.50,0.0400
3848.00,0.0400
3847.50,0.0400
3847.00,0.0401
3846.50,0.0401
3846.00,0.0401
3845.50,0.0401
3845.00,0.0402
3844.50,0.0402
3844.00,0.0402
3843.50,0.0403
3843.00,0.0403
3842.50,0.0403
3842.00,0.0403
3841.50,0.0403
3841.00,0.0404
3840.50,0.0405
3840.00,0.0404
3839.50,0.0403
3839.00,0.0402
3838.50,0.0402
3838.00,0.0404
3837.50,0.0406
3837.00,0.0407
3836.50,0.0406
3836.00,0.0404
3835.50,0.0404
3835.00,0.0407
3834.50,0.0408
3834.00,0.0409
3833.50,0.0409
3833.00,0.0409
3832.50,0.0409
3832.00,0.0410
3831.50,0.0410
3831.00,0.0410
3830.50,0.0410
3830.00,0.0410
3829.50,0.0410
3829.00,0.0411
3828.50,0.0412
3828.00,0.0412
3827.50,0.0411
3827.00,0.0411
3826.50,0.0411
3826.00,0.0412
3825.50,0.0412
3825.00,0.0412
3824.50,0.0412
3824.00,0.0412
3823.50,0.0412
3823.00,0.0412
3822.50,0.0411
3822.00,0.0412
3821.50,0.0412
3821.00,0.0411
3820.50,0.0410
3820.00,0.0410
3819.50,0.0410
3819.00,0.0411
3818.50,0.0412
3818.00,0.0413
3817.50,0.0412
3817.00,0.0411
3816.50,0.0412
3816.00,0.0413
3815.50,0.0415
3815.00,0.0414
3814.50,0.0414
3814.00,0.0413
3813.50,0.0414
3813.00,0.0415
3812.50,0.0416
3812.00,0.0416
3811.50,0.0417
3811.00,0.0417
3810.50,0.0417
3810.00,0.0417
3809.50,0.0417
3809.00,0.0417
3808.50,0.0416
3808.00,0.0415
3807.50,0.0416
3807.00,0.0418
3806.50,0.0419
3806.00,0.0419
3805.50,0.0418
3805.00,0.0418
3804.50,0.0418
3804.00,0.0419
3803.50,0.0419
3803.00,0.0419
3802.50,0.0418
3802.00,0.0417
3801.50,0.0418
3801.00,0.0420
3800.50,0.0421
3800.00,0.0421
3799.50,0.0420
3799.00,0.0420
3798.50,0.0422
3798.00,0.0422
3797.50,0.0422
3797.00,0.0422
3796.50,0.0422
3796.00,0.0423
3795.50,0.0423
3795.00,0.0424
3794.50,0.0424
3794.00,0.0425
3793.50,0.0426
3793.00,0.0427
3792.50,0.0427
3792.00,0.0427
3791.50,0.0428
3791.00,0.0428
3790.50,0.0429
3790.00,0.0429
3789.50,0.0430
3789.00,0.0431
3788.50,0.0431
3788.00,0.0432
3787.50,0.0433
3787.00,0.0434
3786.50,0.0434
3786.00,0.0435
3785.50,0.0435
3785.00,0.0435
3784.50,0.0436
3784.00,0.0436
3783.50,0.0437
3783.00,0.0438
3782.50,0.0439
3782.00,0.0440
3781.50,0.0440
3781.00,0.0440
3780.50,0.0440
3780.00,0.0440
3779.50,0.0440
3779.00,0.0441
3778.50,0.0442
3778.00,0.0443
3777.50,0.0444
3777.00,0.0445
3776.50,0.0446
3776.00,0.0447
3775.50,0.0448
3775.00,0.0448
3774.50,0.0449
3774.00,0.0449
3773.50,0.0450
3773.00,0.0450
3772.50,0.0450
3772.00,0.0451
3771.50,0.0451
3771.00,0.0451
3770.50,0.0451
3770.00,0.0451
3769.50,0.0452
3769.00,0.0452
3768.50,0.0452
3768.00,0.0453
3767.50,0.0453
3767.00,0.0454
3766.50,0.0454
3766.00,0.0454
3765.50,0.0454
3765.00,0.0454
3764.50,0.0454
3764.00,0.0454
3763.50,0.0455
3763.00,0.0456
3762.50,0.0456
3762.00,0.0456
3761.50,0.0456
3761.00,0.0456
3760.50,0.0456
3760.00,0.0456
3759.50,0.0455
3759.00,0.0454
3758.50,0.0454
3758.00,0.0454
3757.50,0.0454
3757.00,0.0455
3756.50,0.0456
3756.00,0.0455
3755.50,0.0455
3755.00,0.0455
3754.50,0.0455
3754.00,0.0455
3753.50,0.0454
3753.00,0.0453
3752.50,0.0453
3752.00,0.0455
3751.50,0.0455
3751.00,0.0453
3750.50,0.0449
3750.00,0.0448
3749.50,0.0451
3749.00,0.0453
3748.50,0.0452
3748.00,0.0451
3747.50,0.0449
3747.00,0.0449
3746.50,0.0449
3746.00,0.0447
3745.50,0.0445
3745.00,0.0446
3744.50,0.0447
3744.00,0.0446
3743.50,0.0446
3743.00,0.0446
3742.50,0.0445
3742.00,0.0444
3741.50,0.0445
3741.00,0.0445
3740.50,0.0444
3740.00,0.0443
3739.50,0.0442
3739.00,0.0442
3738.50,0.0442
3738.00,0.0442
3737.50,0.0441
3737.00,0.0440
3736.50,0.0440
3736.00,0.0440
3735.50,0.0438
3735.00,0.0437
3734.50,0.0438
3734.00,0.0440
3733.50,0.0440
3733.00,0.0441
3732.50,0.0443
3732.00,0.0446
3731.50,0.0447
3731.00,0.0447
3730.50,0.0446
3730.00,0.0447
3729.50,0.0448
3729.00,0.0449
3728.50,0.0449
3728.00,0.0450
3727.50,0.0450
3727.00,0.0450
3726.50,0.0451
3726.00,0.0451
3725.50,0.0451
3725.00,0.0452
3724.50,0.0453
3724.00,0.0454
3723.50,0.0455
3723.00,0.0456
3722.50,0.0456
3722.00,0.0457
3721.50,0.0458
3721.00,0.0459
3720.50,0.0460
3720.00,0.0461
3719.50,0.0462
3719.00,0.0463
3718.50,0.0463
3718.00,0.0464
3717.50,0.0465
3717.00,0.0466
3716.50,0.0467
3716.00,0.0468
3715.50,0.0469
3715.00,0.0469
3714.50,0.0470
3714.00,0.0471
3713.50,0.0471
3713.00,0.0471
3712.50,0.0473
3712.00,0.0475
3711.50,0.0475
3711.00,0.0475
3710.50,0.0474
3710.00,0.0475
3709.50,0.0478
3709.00,0.0480
3708.50,0.0481
3708.00,0.0482
3707.50,0.0483
3707.00,0.0484
3706.50,0.0486
3706.00,0.0487
3705.50,0.0487
3705.00,0.0487
3704.50,0.0488
3704.00,0.0489
3703.50,0.0490
3703.00,0.0490
3702.50,0.0490
3702.00,0.0490
3701.50,0.0490
3701.00,0.0490
3700.50,0.0490
3700.00,0.0490
3699.50,0.0491
3699.00,0.0491
3698.50,0.0491
3698.00,0.0490
3697.50,0.0490
3697.00,0.0489
3696.50,0.0489
3696.00,0.0488
3695.50,0.0488
3695.00,0.0487
3694.50,0.0487
3694.00,0.0486
3693.50,0.0486
3693.00,0.0485
3692.50,0.0484
3692.00,0.0483
3691.50,0.0481
3691.00,0.0480
3690.50,0.0479
3690.00,0.0476
3689.50,0.0474
3689.00,0.0473
3688.50,0.0475
3688.00,0.0476
3687.50,0.0476
3687.00,0.0475
3686.50,0.0474
3686.00,0.0475
3685.50,0.0475
3685.00,0.0474
3684.50,0.0474
3684.00,0.0473
3683.50,0.0473
3683.00,0.0473
3682.50,0.0472
3682.00,0.0472
3681.50,0.0472
3681.00,0.0471
3680.50,0.0471
3680.00,0.0470
3679.50,0.0470
3679.00,0.0469
3678.50,0.0469
3678.00,0.0469
3677.50,0.0468
3677.00,0.0468
3676.50,0.0469
3676.00,0.0469
3675.50,0.0467
3675.00,0.0465
3674.50,0.0464
3674.00,0.0466
3673.50,0.0467
3673.00,0.0469
3672.50,0.0470
3672.00,0.0470
3671.50,0.0470
3671.00,0.0471
3670.50,0.0473
3670.00,0.0472
3669.50,0.0470
3669.00,0.0469
3668.50,0.0470
3668.00,0.0472
3667.50,0.0473
3667.00,0.0474
3666.50,0.0475
3666.00,0.0476
3665.50,0.0477
3665.00,0.0477
3664.50,0.0478
3664.00,0.0478
3663.50,0.0479
3663.00,0.0479
3662.50,0.0480
3662.00,0.0480
3661.50,0.0480
3661.00,0.0480
3660.50,0.0481
3660.00,0.0482
3659.50,0.0482
3659.00,0.0483
3658.50,0.0484
3658.00,0.0485
3657.50,0.0485
3657.00,0.0486
3656.50,0.0487
3656.00,0.0488
3655.50,0.0489
3655.00,0.0489
3654.50,0.0490
3654.00,0.0491
3653.50,0.0492
3653.00,0.0493
3652.50,0.0492
3652.00,0.0492
3651.50,0.0492
3651.00,0.0491
3650.50,0.0490
3650.00,0.0488
3649.50,0.0489
3649.00,0.0492
3648.50,0.0494
3648.00,0.0494
3647.50,0.0493
3647.00,0.0493
3646.50,0.0494
3646.00,0.0495
3645.50,0.0496
3645.00,0.0497
3644.50,0.0498
3644.00,0.0499
3643.50,0.0499
3643.00,0.0499
3642.50,0.0499
3642.00,0.0499
3641.50,0.0498
3641.00,0.0498
3640.50,0.0498
3640.00,0.0499
3639.50,0.0499
3639.00,0.0498
3638.50,0.0498
3638.00,0.0498
3637.50,0.0497
3637.00,0.0497
3636.50,0.0496
3636.00,0.0496
3635.50,0.0496
3635.00,0.0495
3634.50,0.0494
3634.00,0.0493
3633.50,0.0493
3633.00,0.0492
3632.50,0.0492
3632.00,0.0492
3631.50,0.0491
3631.00,0.0491
3630.50,0.0490
3630.00,0.0489
3629.50,0.0489
3629.00,0.0486
3628.50,0.0484
3628.00,0.0484
3627.50,0.0485
3627.00,0.0486
3626.50,0.0486
3626.00,0.0486
3625.50,0.0486
3625.00,0.0486
3624.50,0.0486
3624.00,0.0486
3623.50,0.0486
3623.00,0.0485
3622.50,0.0485
3622.00,0.0484
3621.50,0.0484
3621.00,0.0483
3620.50,0.0483
3620.00,0.0483
3619.50,0.0484
3619.00,0.0484
3618.50,0.0483
3618.00,0.0481
3617.50,0.0481
3617.00,0.0482
3616.50,0.0483
3616.00,0.0482
3615.50,0.0482
3615.00,0.0483
3614.50,0.0483
3614.00,0.0482
3613.50,0.0481
3613.00,0.0481
3612.50,0.0481
3612.00,0.0482
3611.50,0.0483
3611.00,0.0483
3610.50,0.0483
3610.00,0.0483
3609.50,0.0484
3609.00,0.0484
3608.50,0.0484
3608.00,0.0483
3607.50,0.0482
3607.00,0.0482
3606.50,0.0483
3606.00,0.0483
3605.50,0.0483
3605.00,0.0484
3604.50,0.0485
3604.00,0.0486
3603.50,0.0486
3603.00,0.0486
3602.50,0.0486
3602.00,0.0486
3601.50,0.0486
3601.00,0.0486
3600.50,0.0485
3600.00,0.0485
3599.50,0.0485
3599.00,0.0485
3598.50,0.0486
3598.00,0.0487
3597.50,0.0488
3597.00,0.0488
3596.50,0.0488
3596.00,0.0488
3595.50,0.0487
3595.00,0.0487
3594.50,0.0487
3594.00,0.0486
3593.50,0.0486
3593.00,0.0487
3592.50,0.0487
3592.00,0.0487
3591.50,0.0488
3591.00,0.0489
3590.50,0.0489
3590.00,0.0489
3589.50,0.0488
3589.00,0.0487
3588.50,0.0487
3588.00,0.0485
3587.50,0.0483
3587.00,0.0482
3586.50,0.0481
3586.00,0.0481
3585.50,0.0482
3585.00,0.0483
3584.50,0.0484
3584.00,0.0485
3583.50,0.0485
3583.00,0.0485
3582.50,0.0484
3582.00,0.0484
3581.50,0.0484
3581.00,0.0484
3580.50,0.0484
3580.00,0.0484
3579.50,0.0484
3579.00,0.0483
3578.50,0.0483
3578.00,0.0483
3577.50,0.0483
3577.00,0.0482
3576.50,0.0482
3576.00,0.0482
3575.50,0.0482
3575.00,0.0482
3574.50,0.0481
3574.00,0.0481
3573.50,0.0480
3573.00,0.0480
3572.50,0.0480
3572.00,0.0479
3571.50,0.0479
3571.00,0.0478
3570.50,0.0478
3570.00,0.0477
3569.50,0.0477
3569.00,0.0476
3568.50,0.0476
3568.00,0.0475
3567.50,0.0474
3567.00,0.0472
3566.50,0.0471
3566.00,0.0471
3565.50,0.0471
3565.00,0.0472
3564.50,0.0473
3564.00,0.0473
3563.50,0.0474
3563.00,0.0474
3562.50,0.0473
3562.00,0.0473
3561.50,0.0472
3561.00,0.0472
3560.50,0.0472
3560.00,0.0472
3559.50,0.0472
3559.00,0.0472
3558.50,0.0472
3558.00,0.0472
3557.50,0.0473
3557.00,0.0472
3556.50,0.0472
3556.00,0.0472
3555.50,0.0472
3555.00,0.0472
3554.50,0.0472
3554.00,0.0472
3553.50,0.0471
3553.00,0.0470
3552.50,0.0470
3552.00,0.0469
3551.50,0.0469
3551.00,0.0469
3550.50,0.0470
3550.00,0.0470
3549.50,0.0471
3549.00,0.0471
3548.50,0.0470
3548.00,0.0470
3547.50,0.0469
3547.00,0.0468
3546.50,0.0467
3546.00,0.0466
3545.50,0.0466
3545.00,0.0466
3544.50,0.0466
3544.00,0.0466
3543.50,0.0466
3543.00,0.0467
3542.50,0.0467
3542.00,0.0468
3541.50,0.0469
3541.00,0.0469
3540.50,0.0469
3540.00,0.0469
3539.50,0.0469
3539.00,0.0469
3538.50,0.0469
3538.00,0.0469
3537.50,0.0468
3537.00,0.0467
3536.50,0.0467
3536.00,0.0467
3535.50,0.0467
3535.00,0.0468
3534.50,0.0468
3534.00,0.0469
3533.50,0.0469
3533.00,0.0469
3532.50,0.0469
3532.00,0.0469
3531.50,0.0469
3531.00,0.0469
3530.50,0.0469
3530.00,0.0468
3529.50,0.0468
3529.00,0.0468
3528.50,0.0468
3528.00,0.0467
3527.50,0.0467
3527.00,0.0467
3526.50,0.0467
3526.00,0.0466
3525.50,0.0466
3525.00,0.0465
3524.50,0.0465
3524.00,0.0464
3523.50,0.0464
3523.00,0.0465
3522.50,0.0465
3522.00,0.0465
3521.50,0.0466
3521.00,0.0466
3520.50,0.0466
3520.00,0.0466
3519.50,0.0466
3519.00,0.0466
3518.50,0.0466
3518.00,0.0466
3517.50,0.0466
3517.00,0.0466
3516.50,0.0465
3516.00,0.0465
3515.50,0.0465
3515.00,0.0465
3514.50,0.0464
3514.00,0.0464
3513.50,0.0464
3513.00,0.0464
3512.50,0.0464
3512.00,0.0464
3511.50,0.0464
3511.00,0.0464
3510.50,0.0464
3510.00,0.0463
3509.50,0.0463
3509.00,0.0463
3508.50,0.0463
3508.00,0.0463
3507.50,0.0463
3507.00,0.0463
3506.50,0.0463
3506.00,0.0463
3505.50,0.0462
3505.00,0.0462
3504.50,0.0461
3504.00,0.0460
3503.50,0.0459
3503.00,0.0459
3502.50,0.0458
3502.00,0.0459
3501.50,0.0459
3501.00,0.0460
3500.50,0.0460
3500.00,0.0460
3499.50,0.0460
3499.00,0.0460
3498.50,0.0459
3498.00,0.0459
3497.50,0.0459
3497.00,0.0459
3496.50,0.0458
3496.00,0.0458
3495.50,0.0458
3495.00,0.0458
3494.50,0.0458
3494.00,0.0458
3493.50,0.0458
3493.00,0.0458
3492.50,0.0458
3492.00,0.0458
3491.50,0.0458
3491.00,0.0458
3490.50,0.0458
3490.00,0.0457
3489.50,0.0457
3489.00,0.0457
3488.50,0.0456
3488.00,0.0456
3487.50,0.0455
3487.00,0.0455
3486.50,0.0455
3486.00,0.0455
3485.50,0.0456
3485.00,0.0456
3484.50,0.0456
3484.00,0.0456
3483.50,0.0456
3483.00,0.0456
3482.50,0.0455
3482.00,0.0454
3481.50,0.0454
3481.00,0.0453
3480.50,0.0452
3480.00,0.0452
3479.50,0.0452
3479.00,0.0453
3478.50,0.0453
3478.00,0.0453
3477.50,0.0454
3477.00,0.0454
3476.50,0.0453
3476.00,0.0453
3475.50,0.0453
3475.00,0.0452
3474.50,0.0452
3474.00,0.0452
3473.50,0.0452
3473.00,0.0452
3472.50,0.0452
3472.00,0.0452
3471.50,0.0451
3471.00,0.0450
3470.50,0.0450
3470.00,0.0449
3469.50,0.0449
3469.00,0.0448
3468.50,0.0448
3468.00,0.0448
3467.50,0.0448
3467.00,0.0448
3466.50,0.0448
3466.00,0.0448
3465.50,0.0448
3465.00,0.0449
3464.50,0.0449
3464.00,0.0449
3463.50,0.0449
3463.00,0.0449
3462.50,0.0448
3462.00,0.0448
3461.50,0.0447
3461.00,0.0447
3460.50,0.0446
3460.00,0.0446
3459.50,0.0446
3459.00,0.0447
3458.50,0.0447
3458.00,0.0447
3457.50,0.0447
3457.00,0.0447
3456.50,0.0447
3456.00,0.0446
3455.50,0.0446
3455.00,0.0446
3454.50,0.0446
3454.00,0.0445
3453.50,0.0445
3453.00,0.0445
3452.50,0.0445
3452.00,0.0445
3451.50,0.0445
3451.00,0.0445
3450.50,0.0444
3450.00,0.0444
3449.50,0.0444
3449.00,0.0444
3448.50,0.0443
3448.00,0.0443
3447.50,0.0442
3447.00,0.0442
3446.50,0.0442
3446.00,0.0442
3445.50,0.0442
3445.00,0.0442
3444.50,0.0442
3444.00,0.0442
3443.50,0.0442
3443.00,0.0441
3442.50,0.0441
3442.00,0.0441
3441.50,0.0441
3441.00,0.0440
3440.50,0.0440
3440.00,0.0440
3439.50,0.0440
3439.00,0.0439
3438.50,0.0439
3438.00,0.0438
3437.50,0.0438
3437.00,0.0437
3436.50,0.0437
3436.00,0.0437
3435.50,0.0436
3435.00,0.0436
3434.50,0.0437
3434.00,0.0437
3433.50,0.0437
3433.00,0.0437
3432.50,0.0437
3432.00,0.0437
3431.50,0.0436
3431.00,0.0436
3430.50,0.0436
3430.00,0.0436
3429.50,0.0436
3429.00,0.0436
3428.50,0.0436
3428.00,0.0436
3427.50,0.0436
3427.00,0.0436
3426.50,0.0436
3426.00,0.0436
3425.50,0.0436
3425.00,0.0436
3424.50,0.0436
3424.00,0.0436
3423.50,0.0436
3423.00,0.0435
3422.50,0.0435
3422.00,0.0435
3421.50,0.0434
3421.00,0.0434
3420.50,0.0434
3420.00,0.0434
3419.50,0.0434
3419.00,0.0434
3418.50,0.0434
3418.00,0.0434
3417.50,0.0434
3417.00,0.0434
3416.50,0.0434
3416.00,0.0433
3415.50,0.0433
3415.00,0.0433
3414.50,0.0433
3414.00,0.0432
3413.50,0.0432
3413.00,0.0431
3412.50,0.0431
3412.00,0.0432
3411.50,0.0432
3411.00,0.0432
3410.50,0.0432
3410.00,0.0431
3409.50,0.0431
3409.00,0.0431
3408.50,0.0431
3408.00,0.0431
3407.50,0.0431
3407.00,0.0431
3406.50,0.0431
3406.00,0.0431
3405.50,0.0431
3405.00,0.0431
3404.50,0.0430
3404.00,0.0430
3403.50,0.0430
3403.00,0.0429
3402.50,0.0428
3402.00,0.0428
3401.50,0.0427
3401.00,0.0427
3400.50,0.0427
3400.00,0.0427
3399.50,0.0428
3399.00,0.0428
3398.50,0.0428
3398.00,0.0429
3397.50,0.0429
3397.00,0.0429
3396.50,0.0428
3396.00,0.0428
3395.50,0.0428
3395.00,0.0428
3394.50,0.0428
3394.00,0.0428
3393.50,0.0427
3393.00,0.0427
3392.50,0.0426
3392.00,0.0426
3391.50,0.0426
3391.00,0.0426
3390.50,0.0427
3390.00,0.0427
3389.50,0.0428
3389.00,0.0428
3388.50,0.0428
3388.00,0.0428
3387.50,0.0428
3387.00,0.0428
3386.50,0.0428
3386.00,0.0428
3385.50,0.0428
3385.00,0.0428
3384.50,0.0428
3384.00,0.0427
3383.50,0.0427
3383.00,0.0427
3382.50,0.0427
3382.00,0.0427
3381.50,0.0427
3381.00,0.0426
3380.50,0.0426
3380.00,0.0426
3379.50,0.0427
3379.00,0.0427
3378.50,0.0427
3378.00,0.0426
3377.50,0.0426
3377.00,0.0426
3376.50,0.0426
3376.00,0.0426
3375.50,0.0426
3375.00,0.0426
3374.50,0.0426
3374.00,0.0426
3373.50,0.0426
3373.00,0.0426
3372.50,0.0426
3372.00,0.0425
3371.50,0.0425
3371.00,0.0424
3370.50,0.0424
3370.00,0.0424
3369.50,0.0424
3369.00,0.0423
3368.50,0.0424
3368.00,0.0424
3367.50,0.0424
3367.00,0.0424
3366.50,0.0424
3366.00,0.0424
3365.50,0.0425
3365.00,0.0425
3364.50,0.0426
3364.00,0.0426
3363.50,0.0426
3363.00,0.0426
3362.50,0.0426
3362.00,0.0425
3361.50,0.0425
3361.00,0.0425
3360.50,0.0425
3360.00,0.0425
3359.50,0.0425
3359.00,0.0426
3358.50,0.0426
3358.00,0.0426
3357.50,0.0426
3357.00,0.0426
3356.50,0.0426
3356.00,0.0426
3355.50,0.0426
3355.00,0.0426
3354.50,0.0426
3354.00,0.0426
3353.50,0.0425
3353.00,0.0425
3352.50,0.0425
3352.00,0.0424
3351.50,0.0424
3351.00,0.0423
3350.50,0.0423
3350.00,0.0424
3349.50,0.0424
3349.00,0.0425
3348.50,0.0425
3348.00,0.0425
3347.50,0.0425
3347.00,0.0425
3346.50,0.0425
3346.00,0.0425
3345.50,0.0425
3345.00,0.0424
3344.50,0.0424
3344.00,0.0424
3343.50,0.0424
3343.00,0.0424
3342.50,0.0424
3342.00,0.0424
3341.50,0.0424
3341.00,0.0424
3340.50,0.0424
3340.00,0.0423
3339.50,0.0423
3339.00,0.0423
3338.50,0.0423
3338.00,0.0423
3337.50,0.0423
3337.00,0.0423
3336.50,0.0423
3336.00,0.0424
3335.50,0.0424
3335.00,0.0424
3334.50,0.0424
3334.00,0.0424
3333.50,0.0424
3333.00,0.0424
3332.50,0.0424
3332.00,0.0424
3331.50,0.0424
3331.00,0.0424
3330.50,0.0424
3330.00,0.0424
3329.50,0.0424
3329.00,0.0424
3328.50,0.0424
3328.00,0.0423
3327.50,0.0423
3327.00,0.0422
3326.50,0.0422
3326.00,0.0422
3325.50,0.0422
3325.00,0.0422
3324.50,0.0422
3324.00,0.0423
3323.50,0.0423
3323.00,0.0423
3322.50,0.0423
3322.00,0.0423
3321.50,0.0423
3321.00,0.0422
3320.50,0.0422
3320.00,0.0422
3319.50,0.0422
3319.00,0.0422
3318.50,0.0422
3318.00,0.0422
3317.50,0.0422
3317.00,0.0422
3316.50,0.0422
3316.00,0.0422
3315.50,0.0422
3315.00,0.0422
3314.50,0.0422
3314.00,0.0421
3313.50,0.0421
3313.00,0.0421
3312.50,0.0421
3312.00,0.0421
3311.50,0.0421
3311.00,0.0421
3310.50,0.0420
3310.00,0.0420
3309.50,0.0419
3309.00,0.0419
3308.50,0.0419
3308.00,0.0419
3307.50,0.0419
3307.00,0.0419
3306.50,0.0419
3306.00,0.0419
3305.50,0.0419
3305.00,0.0419
3304.50,0.0419
3304.00,0.0420
3303.50,0.0420
3303.00,0.0420
3302.50,0.0421
3302.00,0.0421
3301.50,0.0421
3301.00,0.0421
3300.50,0.0421
3300.00,0.0421
3299.50,0.0421
3299.00,0.0421
3298.50,0.0421
3298.00,0.0420
3297.50,0.0420
3297.00,0.0420
3296.50,0.0419
3296.00,0.0419
3295.50,0.0419
3295.00,0.0419
3294.50,0.0419
3294.00,0.0419
3293.50,0.0419
3293.00,0.0419
3292.50,0.0419
3292.00,0.0419
3291.50,0.0419
3291.00,0.0419
3290.50,0.0420
3290.00,0.0420
3289.50,0.0420
3289.00,0.0420
3288.50,0.0421
3288.00,0.0421
3287.50,0.0420
3287.00,0.0420
3286.50,0.0420
3286.00,0.0420
3285.50,0.0420
3285.00,0.0420
3284.50,0.0420
3284.00,0.0420
3283.50,0.0420
3283.00,0.0420
3282.50,0.0420
3282.00,0.0420
3281.50,0.0420
3281.00,0.0420
3280.50,0.0420
3280.00,0.0420
3279.50,0.0420
3279.00,0.0421
3278.50,0.0421
3278.00,0.0421
3277.50,0.0420
3277.00,0.0420
3276.50,0.0420
3276.00,0.0419
3275.50,0.0419
3275.00,0.0419
3274.50,0.0419
3274.00,0.0419
3273.50,0.0419
3273.00,0.0419
3272.50,0.0419
3272.00,0.0418
3271.50,0.0418
3271.00,0.0418
3270.50,0.0418
3270.00,0.0419
3269.50,0.0419
3269.00,0.0420
3268.50,0.0420
3268.00,0.0420
3267.50,0.0420
3267.00,0.0421
3266.50,0.0421
3266.00,0.0421
3265.50,0.0421
3265.00,0.0421
3264.50,0.0421
3264.00,0.0421
3263.50,0.0421
3263.00,0.0421
3262.50,0.0421
3262.00,0.0421
3261.50,0.0421
3261.00,0.0421
3260.50,0.0421
3260.00,0.0421
3259.50,0.0421
3259.00,0.0421
3258.50,0.0421
3258.00,0.0421
3257.50,0.0420
3257.00,0.0420
3256.50,0.0420
3256.00,0.0419
3255.50,0.0420
3255.00,0.0420
3254.50,0.0420
3254.00,0.0421
3253.50,0.0421
3253.00,0.0421
3252.50,0.0421
3252.00,0.0421
3251.50,0.0421
3251.00,0.0421
3250.50,0.0421
3250.00,0.0421
3249.50,0.0421
3249.00,0.0421
3248.50,0.0420
3248.00,0.0420
3247.50,0.0420
3247.00,0.0420
3246.50,0.0420
3246.00,0.0420
3245.50,0.0421
3245.00,0.0421
3244.50,0.0421
3244.00,0.0421
3243.50,0.0422
3243.00,0.0422
3242.50,0.0422
3242.00,0.0422
3241.50,0.0422
3241.00,0.0422
3240.50,0.0422
3240.00,0.0422
3239.50,0.0422
3239.00,0.0422
3238.50,0.0422
3238.00,0.0422
3237.50,0.0422
3237.00,0.0422
3236.50,0.0422
3236.00,0.0422
3235.50,0.0421
3235.00,0.0421
3234.50,0.0421
3234.00,0.0420
3233.50,0.0420
3233.00,0.0421
3232.50,0.0421
3232.00,0.0422
3231.50,0.0422
3231.00,0.0422
3230.50,0.0423
3230.00,0.0423
3229.50,0.0423
3229.00,0.0423
3228.50,0.0423
3228.00,0.0423
3227.50,0.0423
3227.00,0.0423
3226.50,0.0424
3226.00,0.0424
3225.50,0.0424
3225.00,0.0424
3224.50,0.0424
3224.00,0.0424
3223.50,0.0424
3223.00,0.0424
3222.50,0.0424
3222.00,0.0424
3221.50,0.0424
3221.00,0.0424
3220.50,0.0424
3220.00,0.0424
3219.50,0.0424
3219.00,0.0424
3218.50,0.0424
3218.00,0.0424
3217.50,0.0425
3217.00,0.0425
3216.50,0.0425
3216.00,0.0425
3215.50,0.0425
3215.00,0.0425
3214.50,0.0425
3214.00,0.0425
3213.50,0.0425
3213.00,0.0425
3212.50,0.0425
3212.00,0.0426
3211.50,0.0426
3211.00,0.0426
3210.50,0.0426
3210.00,0.0426
3209.50,0.0426
3209.00,0.0426
3208.50,0.0426
3208.00,0.0426
3207.50,0.0426
3207.00,0.0426
3206.50,0.0426
3206.00,0.0426
3205.50,0.0427
3205.00,0.0427
3204.50,0.0427
3204.00,0.0427
3203.50,0.0427
3203.00,0.0427
3202.50,0.0427
3202.00,0.0428
3201.50,0.0428
3201.00,0.0428
3200.50,0.0428
3200.00,0.0428
3199.50,0.0428
3199.00,0.0428
3198.50,0.0428
3198.00,0.0428
3197.50,0.0429
3197.00,0.0429
3196.50,0.0429
3196.00,0.0429
3195.50,0.0429
3195.00,0.0429
3194.50,0.0430
3194.00,0.0430
3193.50,0.0430
3193.00,0.0430
3192.50,0.0430
3192.00,0.0431
3191.50,0.0431
3191.00,0.0431
3190.50,0.0431
3190.00,0.0431
3189.50,0.0432
3189.00,0.0432
3188.50,0.0432
3188.00,0.0432
3187.50,0.0433
3187.00,0.0433
3186.50,0.0433
3186.00,0.0433
3185.50,0.0433
3185.00,0.0433
3184.50,0.0433
3184.00,0.0433
3183.50,0.0433
3183.00,0.0433
3182.50,0.0433
3182.00,0.0433
3181.50,0.0433
3181.00,0.0433
3180.50,0.0433
3180.00,0.0433
3179.50,0.0433
3179.00,0.0433
3178.50,0.0433
3178.00,0.0433
3177.50,0.0433
3177.00,0.0433
3176.50,0.0433
3176.00,0.0433
3175.50,0.0433
3175.00,0.0433
3174.50,0.0433
3174.00,0.0433
3173.50,0.0434
3173.00,0.0434
3172.50,0.0434
3172.00,0.0434
3171.50,0.0435
3171.00,0.0435
3170.50,0.0435
3170.00,0.0435
3169.50,0.0435
3169.00,0.0435
3168.50,0.0435
3168.00,0.0435
3167.50,0.0436
3167.00,0.0436
3166.50,0.0436
3166.00,0.0436
3165.50,0.0436
3165.00,0.0437
3164.50,0.0437
3164.00,0.0437
3163.50,0.0437
3163.00,0.0438
3162.50,0.0438
3162.00,0.0438
3161.50,0.0438
3161.00,0.0439
3160.50,0.0439
3160.00,0.0439
3159.50,0.0440
3159.00,0.0440
3158.50,0.0440
3158.00,0.0440
3157.50,0.0440
3157.00,0.0441
3156.50,0.0441
3156.00,0.0441
3155.50,0.0441
3155.00,0.0441
3154.50,0.0441
3154.00,0.0441
3153.50,0.0441
3153.00,0.0441
3152.50,0.0441
3152.00,0.0441
3151.50,0.0442
3151.00,0.0443
3150.50,0.0444
3150.00,0.0445
3149.50,0.0445
3149.00,0.0446
3148.50,0.0446
3148.00,0.0446
3147.50,0.0447
3147.00,0.0447
3146.50,0.0448
3146.00,0.0448
3145.50,0.0448
3145.00,0.0449
3144.50,0.0449
3144.00,0.0450
3143.50,0.0450
3143.00,0.0451
3142.50,0.0451
3142.00,0.0451
3141.50,0.0451
3141.00,0.0451
3140.50,0.0451
3140.00,0.0452
3139.50,0.0452
3139.00,0.0453
3138.50,0.0454
3138.00,0.0454
3137.50,0.0455
3137.00,0.0456
3136.50,0.0457
3136.00,0.0458
3135.50,0.0459
3135.00,0.0459
3134.50,0.0460
3134.00,0.0461
3133.50,0.0461
3133.00,0.0462
3132.50,0.0462
3132.00,0.0463
3131.50,0.0463
3131.00,0.0464
3130.50,0.0464
3130.00,0.0465
3129.50,0.0465
3129.00,0.0466
3128.50,0.0467
3128.00,0.0468
3127.50,0.0469
3127.00,0.0470
3126.50,0.0470
3126.00,0.0471
3125.50,0.0472
3125.00,0.0472
3124.50,0.0473
3124.00,0.0473
3123.50,0.0474
3123.00,0.0474
3122.50,0.0474
3122.00,0.0474
3121.50,0.0474
3121.00,0.0474
3120.50,0.0474
3120.00,0.0475
3119.50,0.0476
3119.00,0.0476
3118.50,0.0477
3118.00,0.0477
3117.50,0.0477
3117.00,0.0478
3116.50,0.0478
3116.00,0.0478
3115.50,0.0479
3115.00,0.0480
3114.50,0.0481
3114.00,0.0481
3113.50,0.0482
3113.00,0.0483
3112.50,0.0483
3112.00,0.0483
3111.50,0.0484
3111.00,0.0484
3110.50,0.0484
3110.00,0.0483
3109.50,0.0483
3109.00,0.0483
3108.50,0.0483
3108.00,0.0484
3107.50,0.0485
3107.00,0.0485
3106.50,0.0486
3106.00,0.0486
3105.50,0.0486
3105.00,0.0486
3104.50,0.0486
3104.00,0.0486
3103.50,0.0487
3103.00,0.0487
3102.50,0.0487
3102.00,0.0486
3101.50,0.0486
3101.00,0.0486
3100.50,0.0485
3100.00,0.0486
3099.50,0.0486
3099.00,0.0486
3098.50,0.0487
3098.00,0.0487
3097.50,0.0487
3097.00,0.0487
3096.50,0.0487
3096.00,0.0487
3095.50,0.0487
3095.00,0.0487
3094.50,0.0487
3094.00,0.0488
3093.50,0.0488
3093.00,0.0487
3092.50,0.0487
3092.00,0.0487
3091.50,0.0486
3091.00,0.0486
3090.50,0.0486
3090.00,0.0486
3089.50,0.0487
3089.00,0.0487
3088.50,0.0487
3088.00,0.0487
3087.50,0.0487
3087.00,0.0488
3086.50,0.0488
3086.00,0.0488
3085.50,0.0488
3085.00,0.0488
3084.50,0.0487
3084.00,0.0488
3083.50,0.0488
3083.00,0.0489
3082.50,0.0489
3082.00,0.0489
3081.50,0.0489
3081.00,0.0489
3080.50,0.0489
3080.00,0.0490
3079.50,0.0490
3079.00,0.0490
3078.50,0.0491
3078.00,0.0491
3077.50,0.0492
3077.00,0.0493
3076.50,0.0494
3076.00,0.0495
3075.50,0.0495
3075.00,0.0496
3074.50,0.0497
3074.00,0.0497
3073.50,0.0498
3073.00,0.0498
3072.50,0.0499
3072.00,0.0499
3071.50,0.0500
3071.00,0.0501
3070.50,0.0501
3070.00,0.0502
3069.50,0.0502
3069.00,0.0502
3068.50,0.0503
3068.00,0.0503
3067.50,0.0504
3067.00,0.0505
3066.50,0.0506
3066.00,0.0507
3065.50,0.0509
3065.00,0.0510
3064.50,0.0512
3064.00,0.0513
3063.50,0.0514
3063.00,0.0516
3062.50,0.0517
3062.00,0.0519
3061.50,0.0521
3061.00,0.0523
3060.50,0.0525
3060.00,0.0527
3059.50,0.0529
3059.00,0.0530
3058.50,0.0532
3058.00,0.0534
3057.50,0.0535
3057.00,0.0537
3056.50,0.0539
3056.00,0.0541
3055.50,0.0542
3055.00,0.0544
3054.50,0.0545
3054.00,0.0546
3053.50,0.0547
3053.00,0.0548
3052.50,0.0547
3052.00,0.0547
3051.50,0.0545
3051.00,0.0544
3050.50,0.0543
3050.00,0.0542
3049.50,0.0540
3049.00,0.0539
3048.50,0.0536
3048.00,0.0534
3047.50,0.0532
3047.00,0.0529
3046.50,0.0527
3046.00,0.0525
3045.50,0.0523
3045.00,0.0521
3044.50,0.0520
3044.00,0.0519
3043.50,0.0518
3043.00,0.0516
3042.50,0.0515
3042.00,0.0515
3041.50,0.0514
3041.00,0.0514
3040.50,0.0514
3040.00,0.0514
3039.50,0.0514
3039.00,0.0514
3038.50,0.0514
3038.00,0.0514
3037.50,0.0513
3037.00,0.0513
3036.50,0.0512
3036.00,0.0511
3035.50,0.0511
3035.00,0.0511
3034.50,0.0510
3034.00,0.0511
3033.50,0.0511
3033.00,0.0511
3032.50,0.0512
3032.00,0.0512
3031.50,0.0513
3031.00,0.0513
3030.50,0.0513
3030.00,0.0514
3029.50,0.0514
3029.00,0.0515
3028.50,0.0516
3028.00,0.0517
3027.50,0.0518
3027.00,0.0518
3026.50,0.0519
3026.00,0.0519
3025.50,0.0519
3025.00,0.0520
3024.50,0.0521
3024.00,0.0523
3023.50,0.0524
3023.00,0.0526
3022.50,0.0527
3022.00,0.0528
3021.50,0.0530
3021.00,0.0531
3020.50,0.0532
3020.00,0.0533
3019.50,0.0535
3019.00,0.0537
3018.50,0.0538
3018.00,0.0540
3017.50,0.0541
3017.00,0.0542
3016.50,0.0543
3016.00,0.0545
3015.50,0.0546
3015.00,0.0547
3014.50,0.0548
3014.00,0.0549
3013.50,0.0550
3013.00,0.0551
3012.50,0.0552
3012.00,0.0553
3011.50,0.0554
3011.00,0.0556
3010.50,0.0557
3010.00,0.0559
3009.50,0.0561
3009.00,0.0563
3008.50,0.0565
3008.00,0.0567
3007.50,0.0569
3007.00,0.0571
3006.50,0.0573
3006.00,0.0575
3005.50,0.0578
3005.00,0.0580
3004.50,0.0583
3004.00,0.0586
3003.50,0.0589
3003.00,0.0592
3002.50,0.0596
3002.00,0.0600
3001.50,0.0603
3001.00,0.0607
3000.50,0.0612
3000.00,0.0616
2999.50,0.0620
2999.00,0.0625
2998.50,0.0630
2998.00,0.0635
2997.50,0.0641
2997.00,0.0647
2996.50,0.0654
2996.00,0.0661
2995.50,0.0668
2995.00,0.0675
2994.50,0.0683
2994.00,0.0691
2993.50,0.0699
2993.00,0.0708
2992.50,0.0718
2992.00,0.0728
2991.50,0.0739
2991.00,0.0751
2990.50,0.0764
2990.00,0.0777
2989.50,0.0790
2989.00,0.0805
2988.50,0.0820
2988.00,0.0837
2987.50,0.0854
2987.00,0.0873
2986.50,0.0893
2986.00,0.0914
2985.50,0.0936
2985.00,0.0960
2984.50,0.0986
2984.00,0.1013
2983.50,0.1042
2983.00,0.1073
2982.50,0.1106
2982.00,0.1142
2981.50,0.1180
2981.00,0.1221
2980.50,0.1266
2980.00,0.1313
2979.50,0.1364
2979.00,0.1419
2978.50,0.1478
2978.00,0.1542
2977.50,0.1611
2977.00,0.1685
2976.50,0.1763
2976.00,0.1847
2975.50,0.1937
2975.00,0.2034
2974.50,0.2137
2974.00,0.2248
2973.50,0.2366
2973.00,0.2491
2972.50,0.2623
2972.00,0.2761
2971.50,0.2907
2971.00,0.3058
2970.50,0.3216
2970.00,0.3378
2969.50,0.3545
2969.00,0.3714
2968.50,0.3884
2968.00,0.4053
2967.50,0.4218
2967.00,0.4378
2966.50,0.4529
2966.00,0.4668
2965.50,0.4792
2965.00,0.4898
2964.50,0.4982
2964.00,0.5043
2963.50,0.5076
2963.00,0.5083
2962.50,0.5063
2962.00,0.5015
2961.50,0.4941
2961.00,0.4842
2960.50,0.4721
2960.00,0.4581
2959.50,0.4426
2959.00,0.4258
2958.50,0.4083
2958.00,0.3904
2957.50,0.3723
2957.00,0.3543
2956.50,0.3367
2956.00,0.3197
2955.50,0.3033
2955.00,0.2877
2954.50,0.2729
2954.00,0.2589
2953.50,0.2458
2953.00,0.2337
2952.50,0.2225
2952.00,0.2121
2951.50,0.2025
2951.00,0.1937
2950.50,0.1854
2950.00,0.1778
2949.50,0.1706
2949.00,0.1640
2948.50,0.1577
2948.00,0.1519
2947.50,0.1465
2947.00,0.1415
2946.50,0.1369
2946.00,0.1326
2945.50,0.1286
2945.00,0.1248
2944.50,0.1213
2944.00,0.1180
2943.50,0.1150
2943.00,0.1122
2942.50,0.1097
2942.00,0.1072
2941.50,0.1050
2941.00,0.1028
2940.50,0.1008
2940.00,0.0989
2939.50,0.0971
2939.00,0.0955
2938.50,0.0939
2938.00,0.0924
2937.50,0.0910
2937.00,0.0897
2936.50,0.0884
2936.00,0.0872
2935.50,0.0861
2935.00,0.0851
2934.50,0.0841
2934.00,0.0832
2933.50,0.0824
2933.00,0.0816
2932.50,0.0808
2932.00,0.0801
2931.50,0.0794
2931.00,0.0787
2930.50,0.0781
2930.00,0.0775
2929.50,0.0771
2929.00,0.0767
2928.50,0.0763
2928.00,0.0760
2927.50,0.0757
2927.00,0.0754
2926.50,0.0752
2926.00,0.0749
2925.50,0.0748
2925.00,0.0746
2924.50,0.0745
2924.00,0.0745
2923.50,0.0744
2923.00,0.0744
2922.50,0.0745
2922.00,0.0746
2921.50,0.0748
2921.00,0.0749
2920.50,0.0752
2920.00,0.0755
2919.50,0.0758
2919.00,0.0761
2918.50,0.0766
2918.00,0.0771
2917.50,0.0777
2917.00,0.0784
2916.50,0.0792
2916.00,0.0800
2915.50,0.0810
2915.00,0.0820
2914.50,0.0831
2914.00,0.0843
2913.50,0.0856
2913.00,0.0870
2912.50,0.0886
2912.00,0.0902
2911.50,0.0918
2911.00,0.0936
2910.50,0.0953
2910.00,0.0971
2909.50,0.0989
2909.00,0.1006
2908.50,0.1023
2908.00,0.1038
2907.50,0.1052
2907.00,0.1064
2906.50,0.1074
2906.00,0.1082
2905.50,0.1087
2905.00,0.1089
2904.50,0.1089
2904.00,0.1087
2903.50,0.1082
2903.00,0.1074
2902.50,0.1065
2902.00,0.1053
2901.50,0.1039
2901.00,0.1025
2900.50,0.1009
2900.00,0.0992
2899.50,0.0974
2899.00,0.0956
2898.50,0.0939
2898.00,0.0921
2897.50,0.0903
2897.00,0.0885
2896.50,0.0868
2896.00,0.0852
2895.50,0.0836
2895.00,0.0822
2894.50,0.0807
2894.00,0.0794
2893.50,0.0781
2893.00,0.0769
2892.50,0.0757
2892.00,0.0746
2891.50,0.0736
2891.00,0.0726
2890.50,0.0717
2890.00,0.0708
2889.50,0.0699
2889.00,0.0691
2888.50,0.0684
2888.00,0.0677
2887.50,0.0670
2887.00,0.0664
2886.50,0.0658
2886.00,0.0652
2885.50,0.0646
2885.00,0.0641
2884.50,0.0636
2884.00,0.0631
2883.50,0.0627
2883.00,0.0622
2882.50,0.0618
2882.00,0.0614
2881.50,0.0611
2881.00,0.0607
2880.50,0.0603
2880.00,0.0600
2879.50,0.0597
2879.00,0.0594
2878.50,0.0591
2878.00,0.0588
2877.50,0.0585
2877.00,0.0582
2876.50,0.0579
2876.00,0.0577
2875.50,0.0574
2875.00,0.0571
2874.50,0.0568
2874.00,0.0565
2873.50,0.0563
2873.00,0.0561
2872.50,0.0559
2872.00,0.0558
2871.50,0.0556
2871.00,0.0554
2870.50,0.0552
2870.00,0.0551
2869.50,0.0549
2869.00,0.0547
2868.50,0.0546
2868.00,0.0544
2867.50,0.0542
2867.00,0.0541
2866.50,0.0539
2866.00,0.0538
2865.50,0.0537
2865.00,0.0536
2864.50,0.0534
2864.00,0.0533
2863.50,0.0532
2863.00,0.0531
2862.50,0.0530
2862.00,0.0529
2861.50,0.0528
2861.00,0.0527
2860.50,0.0526
2860.00,0.0525
2859.50,0.0525
2859.00,0.0525
2858.50,0.0524
2858.00,0.0524
2857.50,0.0524
2857.00,0.0523
2856.50,0.0523
2856.00,0.0522
2855.50,0.0522
2855.00,0.0522
2854.50,0.0521
2854.00,0.0521
2853.50,0.0521
2853.00,0.0521
2852.50,0.0520
2852.00,0.0520
2851.50,0.0520
2851.00,0.0519
2850.50,0.0519
2850.00,0.0519
2849.50,0.0518
2849.00,0.0517
2848.50,0.0517
2848.00,0.0516
2847.50,0.0516
2847.00,0.0515
2846.50,0.0515
2846.00,0.0515
2845.50,0.0514
2845.00,0.0514
2844.50,0.0513
2844.00,0.0513
2843.50,0.0513
2843.00,0.0512
2842.50,0.0512
2842.00,0.0511
2841.50,0.0511
2841.00,0.0510
2840.50,0.0509
2840.00,0.0508
2839.50,0.0508
2839.00,0.0507
2838.50,0.0506
2838.00,0.0506
2837.50,0.0506
2837.00,0.0506
2836.50,0.0506
2836.00,0.0505
2835.50,0.0504
2835.00,0.0504
2834.50,0.0503
2834.00,0.0503
2833.50,0.0502
2833.00,0.0502
2832.50,0.0501
2832.00,0.0500
2831.50,0.0500
2831.00,0.0499
2830.50,0.0499
2830.00,0.0498
2829.50,0.0498
2829.00,0.0498
2828.50,0.0497
2828.00,0.0497
2827.50,0.0497
2827.00,0.0496
2826.50,0.0496
2826.00,0.0496
2825.50,0.0496
2825.00,0.0496
2824.50,0.0495
2824.00,0.0495
2823.50,0.0495
2823.00,0.0496
2822.50,0.0496
2822.00,0.0496
2821.50,0.0496
2821.00,0.0496
2820.50,0.0496
2820.00,0.0497
2819.50,0.0497
2819.00,0.0497
2818.50,0.0498
2818.00,0.0498
2817.50,0.0498
2817.00,0.0498
2816.50,0.0499
2816.00,0.0499
2815.50,0.0499
2815.00,0.0500
2814.50,0.0500
2814.00,0.0500
2813.50,0.0500
2813.00,0.0500
2812.50,0.0500
2812.00,0.0500
2811.50,0.0500
2811.00,0.0500
2810.50,0.0499
2810.00,0.0499
2809.50,0.0499
2809.00,0.0500
2808.50,0.0500
2808.00,0.0500
2807.50,0.0499
2807.00,0.0499
2806.50,0.0499
2806.00,0.0499
2805.50,0.0499
2805.00,0.0498
2804.50,0.0498
2804.00,0.0498
2803.50,0.0498
2803.00,0.0498
2802.50,0.0497
2802.00,0.0497
2801.50,0.0497
2801.00,0.0497
2800.50,0.0496
2800.00,0.0496
2799.50,0.0495
2799.00,0.0495
2798.50,0.0494
2798.00,0.0494
2797.50,0.0494
2797.00,0.0494
2796.50,0.0493
2796.00,0.0493
2795.50,0.0492
2795.00,0.0492
2794.50,0.0491
2794.00,0.0490
2793.50,0.0489
2793.00,0.0488
2792.50,0.0487
2792.00,0.0486
2791.50,0.0485
2791.00,0.0483
2790.50,0.0482
2790.00,0.0480
2789.50,0.0478
2789.00,0.0476
2788.50,0.0475
2788.00,0.0473
2787.50,0.0472
2787.00,0.0470
2786.50,0.0468
2786.00,0.0466
2785.50,0.0464
2785.00,0.0462
2784.50,0.0460
2784.00,0.0458
2783.50,0.0457
2783.00,0.0455
2782.50,0.0453
2782.00,0.0451
2781.50,0.0449
2781.00,0.0447
2780.50,0.0446
2780.00,0.0444
2779.50,0.0443
2779.00,0.0441
2778.50,0.0439
2778.00,0.0438
2777.50,0.0437
2777.00,0.0435
2776.50,0.0433
2776.00,0.0432
2775.50,0.0430
2775.00,0.0429
2774.50,0.0428
2774.00,0.0427
2773.50,0.0427
2773.00,0.0426
2772.50,0.0425
2772.00,0.0424
2771.50,0.0423
2771.00,0.0422
2770.50,0.0421
2770.00,0.0420
2769.50,0.0420
2769.00,0.0419
2768.50,0.0418
2768.00,0.0417
2767.50,0.0417
2767.00,0.0416
2766.50,0.0415
2766.00,0.0415
2765.50,0.0414
2765.00,0.0414
2764.50,0.0413
2764.00,0.0413
2763.50,0.0412
2763.00,0.0412
2762.50,0.0411
2762.00,0.0411
2761.50,0.0410
2761.00,0.0410
2760.50,0.0409
2760.00,0.0408
2759.50,0.0408
2759.00,0.0408
2758.50,0.0407
2758.00,0.0407
2757.50,0.0407
2757.00,0.0406
2756.50,0.0406
2756.00,0.0406
2755.50,0.0405
2755.00,0.0405
2754.50,0.0405
2754.00,0.0405
2753.50,0.0404
2753.00,0.0404
2752.50,0.0404
2752.00,0.0403
2751.50,0.0403
2751.00,0.0402
2750.50,0.0402
2750.00,0.0402
2749.50,0.0401
2749.00,0.0401
2748.50,0.0401
2748.00,0.0400
2747.50,0.0400
2747.00,0.0400
2746.50,0.0400
2746.00,0.0400
2745.50,0.0400
2745.00,0.0400
2744.50,0.0399
2744.00,0.0399
2743.50,0.0399
2743.00,0.0399
2742.50,0.0398
2742.00,0.0398
2741.50,0.0398
2741.00,0.0398
2740.50,0.0398
2740.00,0.0397
2739.50,0.0397
2739.00,0.0397
2738.50,0.0397
2738.00,0.0396
2737.50,0.0396
2737.00,0.0396
2736.50,0.0396
2736.00,0.0396
2735.50,0.0396
2735.00,0.0396
2734.50,0.0396
2734.00,0.0396
2733.50,0.0396
2733.00,0.0396
2732.50,0.0395
2732.00,0.0395
2731.50,0.0395
2731.00,0.0395
2730.50,0.0395
2730.00,0.0395
2729.50,0.0395
2729.00,0.0395
2728.50,0.0394
2728.00,0.0394
2727.50,0.0394
2727.00,0.0393
2726.50,0.0393
2726.00,0.0393
2725.50,0.0393
2725.00,0.0393
2724.50,0.0394
2724.00,0.0394
2723.50,0.0393
2723.00,0.0393
2722.50,0.0393
2722.00,0.0393
2721.50,0.0393
2721.00,0.0393
2720.50,0.0394
2720.00,0.0394
2719.50,0.0394
2719.00,0.0393
2718.50,0.0393
2718.00,0.0393
2717.50,0.0393
2717.00,0.0393
2716.50,0.0393
2716.00,0.0393
2715.50,0.0393
2715.00,0.0393
2714.50,0.0393
2714.00,0.0393
2713.50,0.0393
2713.00,0.0393
2712.50,0.0393
2712.00,0.0393
2711.50,0.0393
2711.00,0.0393
2710.50,0.0393
2710.00,0.0393
2709.50,0.0393
2709.00,0.0393
2708.50,0.0393
2708.00,0.0393
2707.50,0.0393
2707.00,0.0393
2706.50,0.0393
2706.00,0.0393
2705.50,0.0393
2705.00,0.0393
2704.50,0.0393
2704.00,0.0393
2703.50,0.0393
2703.00,0.0393
2702.50,0.0393
2702.00,0.0392
2701.50,0.0392
2701.00,0.0392
2700.50,0.0392
2700.00,0.0392
2699.50,0.0392
2699.00,0.0392
2698.50,0.0392
2698.00,0.0392
2697.50,0.0392
2697.00,0.0392
2696.50,0.0392
2696.00,0.0392
2695.50,0.0391
2695.00,0.0391
2694.50,0.0391
2694.00,0.0391
2693.50,0.0391
2693.00,0.0391
2692.50,0.0391
2692.00,0.0391
2691.50,0.0391
2691.00,0.0391
2690.50,0.0391
2690.00,0.0391
2689.50,0.0391
2689.00,0.0391
2688.50,0.0391
2688.00,0.0391
2687.50,0.0391
2687.00,0.0391
2686.50,0.0391
2686.00,0.0391
2685.50,0.0392
2685.00,0.0392
2684.50,0.0392
2684.00,0.0392
2683.50,0.0392
2683.00,0.0392
2682.50,0.0392
2682.00,0.0392
2681.50,0.0392
2681.00,0.0392
2680.50,0.0392
2680.00,0.0393
2679.50,0.0393
2679.00,0.0393
2678.50,0.0394
2678.00,0.0394
2677.50,0.0394
2677.00,0.0395
2676.50,0.0395
2676.00,0.0396
2675.50,0.0396
2675.00,0.0397
2674.50,0.0397
2674.00,0.0397
2673.50,0.0397
2673.00,0.0398
2672.50,0.0398
2672.00,0.0399
2671.50,0.0399
2671.00,0.0400
2670.50,0.0400
2670.00,0.0401
2669.50,0.0401
2669.00,0.0401
2668.50,0.0401
2668.00,0.0402
2667.50,0.0402
2667.00,0.0402
2666.50,0.0403
2666.00,0.0403
2665.50,0.0403
2665.00,0.0403
2664.50,0.0403
2664.00,0.0404
2663.50,0.0404
2663.00,0.0404
2662.50,0.0404
2662.00,0.0404
2661.50,0.0404
2661.00,0.0403
2660.50,0.0403
2660.00,0.0403
2659.50,0.0403
2659.00,0.0403
2658.50,0.0403
2658.00,0.0402
2657.50,0.0402
2657.00,0.0402
2656.50,0.0401
2656.00,0.0401
2655.50,0.0400
2655.00,0.0400
2654.50,0.0400
2654.00,0.0399
2653.50,0.0399
2653.00,0.0398
2652.50,0.0398
2652.00,0.0397
2651.50,0.0397
2651.00,0.0396
2650.50,0.0396
2650.00,0.0395
2649.50,0.0395
2649.00,0.0394
2648.50,0.0393
2648.00,0.0393
2647.50,0.0392
2647.00,0.0392
2646.50,0.0392
2646.00,0.0391
2645.50,0.0391
2645.00,0.0390
2644.50,0.0390
2644.00,0.0390
2643.50,0.0389
2643.00,0.0389
2642.50,0.0388
2642.00,0.0388
2641.50,0.0387
2641.00,0.0387
2640.50,0.0387
2640.00,0.0386
2639.50,0.0386
2639.00,0.0385
2638.50,0.0385
2638.00,0.0385
2637.50,0.0385
2637.00,0.0384
2636.50,0.0384
2636.00,0.0384
2635.50,0.0384
2635.00,0.0383
2634.50,0.0383
2634.00,0.0383
2633.50,0.0383
2633.00,0.0382
2632.50,0.0382
2632.00,0.0382
2631.50,0.0382
2631.00,0.0382
2630.50,0.0381
2630.00,0.0381
2629.50,0.0381
2629.00,0.0381
2628.50,0.0381
2628.00,0.0380
2627.50,0.0380
2627.00,0.0380
2626.50,0.0380
2626.00,0.0380
2625.50,0.0380
2625.00,0.0379
2624.50,0.0379
2624.00,0.0379
2623.50,0.0379
2623.00,0.0379
2622.50,0.0379
2622.00,0.0379
2621.50,0.0379
2621.00,0.0379
2620.50,0.0379
2620.00,0.0379
2619.50,0.0379
2619.00,0.0378
2618.50,0.0378
2618.00,0.0378
2617.50,0.0378
2617.00,0.0378
2616.50,0.0378
2616.00,0.0378
2615.50,0.0378
2615.00,0.0378
2614.50,0.0378
2614.00,0.0378
2613.50,0.0378
2613.00,0.0378
2612.50,0.0378
2612.00,0.0377
2611.50,0.0377
2611.00,0.0377
2610.50,0.0377
2610.00,0.0377
2609.50,0.0377
2609.00,0.0377
2608.50,0.0377
2608.00,0.0376
2607.50,0.0376
2607.00,0.0376
2606.50,0.0376
2606.00,0.0376
2605.50,0.0376
2605.00,0.0376
2604.50,0.0376
2604.00,0.0376
2603.50,0.0376
2603.00,0.0376
2602.50,0.0376
2602.00,0.0376
2601.50,0.0376
2601.00,0.0376
2600.50,0.0376
2600.00,0.0375
2599.50,0.0375
2599.00,0.0375
2598.50,0.0375
2598.00,0.0375
2597.50,0.0375
2597.00,0.0375
2596.50,0.0375
2596.00,0.0375
2595.50,0.0375
2595.00,0.0375
2594.50,0.0375
2594.00,0.0375
2593.50,0.0375
2593.00,0.0375
2592.50,0.0375
2592.00,0.0375
2591.50,0.0375
2591.00,0.0375
2590.50,0.0375
2590.00,0.0375
2589.50,0.0375
2589.00,0.0375
2588.50,0.0375
2588.00,0.0374
2587.50,0.0374
2587.00,0.0374
2586.50,0.0374
2586.00,0.0374
2585.50,0.0374
2585.00,0.0374
2584.50,0.0374
2584.00,0.0374
2583.50,0.0374
2583.00,0.0374
2582.50,0.0374
2582.00,0.0374
2581.50,0.0374
2581.00,0.0374
2580.50,0.0374
2580.00,0.0374
2579.50,0.0374
2579.00,0.0374
2578.50,0.0374
2578.00,0.0374
2577.50,0.0374
2577.00,0.0373
2576.50,0.0373
2576.00,0.0373
2575.50,0.0373
2575.00,0.0373
2574.50,0.0373
2574.00,0.0373
2573.50,0.0373
2573.00,0.0373
2572.50,0.0373
2572.00,0.0373
2571.50,0.0373
2571.00,0.0373
2570.50,0.0373
2570.00,0.0373
2569.50,0.0373
2569.00,0.0373
2568.50,0.0373
2568.00,0.0373
2567.50,0.0372
2567.00,0.0372
2566.50,0.0372
2566.00,0.0372
2565.50,0.0372
2565.00,0.0372
2564.50,0.0372
2564.00,0.0373
2563.50,0.0372
2563.00,0.0372
2562.50,0.0372
2562.00,0.0372
2561.50,0.0372
2561.00,0.0372
2560.50,0.0372
2560.00,0.0372
2559.50,0.0372
2559.00,0.0372
2558.50,0.0372
2558.00,0.0372
2557.50,0.0372
2557.00,0.0372
2556.50,0.0372
2556.00,0.0372
2555.50,0.0372
2555.00,0.0372
2554.50,0.0372
2554.00,0.0372
2553.50,0.0372
2553.00,0.0372
2552.50,0.0372
2552.00,0.0372
2551.50,0.0372
2551.00,0.0372
2550.50,0.0372
2550.00,0.0372
2549.50,0.0372
2549.00,0.0371
2548.50,0.0371
2548.00,0.0371
2547.50,0.0371
2547.00,0.0371
2546.50,0.0371
2546.00,0.0371
2545.50,0.0371
2545.00,0.0371
2544.50,0.0371
2544.00,0.0371
2543.50,0.0371
2543.00,0.0370
2542.50,0.0370
2542.00,0.0370
2541.50,0.0370
2541.00,0.0370
2540.50,0.0370
2540.00,0.0370
2539.50,0.0370
2539.00,0.0370
2538.50,0.0369
2538.00,0.0369
2537.50,0.0369
2537.00,0.0369
2536.50,0.0369
2536.00,0.0369
2535.50,0.0369
2535.00,0.0369
2534.50,0.0369
2534.00,0.0369
2533.50,0.0369
2533.00,0.0369
2532.50,0.0369
2532.00,0.0369
2531.50,0.0369
2531.00,0.0369
2530.50,0.0369
2530.00,0.0369
2529.50,0.0369
2529.00,0.0369
2528.50,0.0369
2528.00,0.0369
2527.50,0.0369
2527.00,0.0369
2526.50,0.0369
2526.00,0.0369
2525.50,0.0369
2525.00,0.0369
2524.50,0.0369
2524.00,0.0370
2523.50,0.0370
2523.00,0.0370
2522.50,0.0370
2522.00,0.0370
2521.50,0.0370
2521.00,0.0370
2520.50,0.0370
2520.00,0.0370
2519.50,0.0370
2519.00,0.0370
2518.50,0.0370
2518.00,0.0370
2517.50,0.0371
2517.00,0.0371
2516.50,0.0371
2516.00,0.0371
2515.50,0.0371
2515.00,0.0371
2514.50,0.0372
2514.00,0.0372
2513.50,0.0372
2513.00,0.0373
2512.50,0.0373
2512.00,0.0374
2511.50,0.0374
2511.00,0.0374
2510.50,0.0375
2510.00,0.0375
2509.50,0.0376
2509.00,0.0377
2508.50,0.0377
2508.00,0.0378
2507.50,0.0379
2507.00,0.0380
2506.50,0.0381
2506.00,0.0382
2505.50,0.0383
2505.00,0.0385
2504.50,0.0386
2504.00,0.0387
2503.50,0.0389
2503.00,0.0390
2502.50,0.0391
2502.00,0.0392
2501.50,0.0393
2501.00,0.0394
2500.50,0.0395
2500.00,0.0395
2499.50,0.0396
2499.00,0.0396
2498.50,0.0396
2498.00,0.0396
2497.50,0.0395
2497.00,0.0395
2496.50,0.0394
2496.00,0.0393
2495.50,0.0393
2495.00,0.0392
2494.50,0.0391
2494.00,0.0390
2493.50,0.0389
2493.00,0.0389
2492.50,0.0388
2492.00,0.0387
2491.50,0.0386
2491.00,0.0385
2490.50,0.0385
2490.00,0.0384
2489.50,0.0383
2489.00,0.0382
2488.50,0.0382
2488.00,0.0381
2487.50,0.0380
2487.00,0.0380
2486.50,0.0379
2486.00,0.0379
2485.50,0.0378
2485.00,0.0378
2484.50,0.0377
2484.00,0.0377
2483.50,0.0376
2483.00,0.0376
2482.50,0.0376
2482.00,0.0375
2481.50,0.0375
2481.00,0.0375
2480.50,0.0374
2480.00,0.0374
2479.50,0.0374
2479.00,0.0374
2478.50,0.0374
2478.00,0.0374
2477.50,0.0373
2477.00,0.0373
2476.50,0.0373
2476.00,0.0373
2475.50,0.0373
2475.00,0.0372
2474.50,0.0372
2474.00,0.0372
2473.50,0.0372
2473.00,0.0372
2472.50,0.0372
2472.00,0.0372
2471.50,0.0372
2471.00,0.0372
2470.50,0.0372
2470.00,0.0372
2469.50,0.0371
2469.00,0.0371
2468.50,0.0371
2468.00,0.0371
2467.50,0.0371
2467.00,0.0371
2466.50,0.0371
2466.00,0.0371
2465.50,0.0371
2465.00,0.0371
2464.50,0.0371
2464.00,0.0371
2463.50,0.0371
2463.00,0.0370
2462.50,0.0370
2462.00,0.0370
2461.50,0.0370
2461.00,0.0370
2460.50,0.0370
2460.00,0.0370
2459.50,0.0370
2459.00,0.0370
2458.50,0.0370
2458.00,0.0370
2457.50,0.0370
2457.00,0.0369
2456.50,0.0369
2456.00,0.0369
2455.50,0.0369
2455.00,0.0369
2454.50,0.0369
2454.00,0.0369
2453.50,0.0369
2453.00,0.0369
2452.50,0.0369
2452.00,0.0369
2451.50,0.0369
2451.00,0.0369
2450.50,0.0369
2450.00,0.0369
2449.50,0.0369
2449.00,0.0369
2448.50,0.0369
2448.00,0.0369
2447.50,0.0369
2447.00,0.0369
2446.50,0.0369
2446.00,0.0369
2445.50,0.0369
2445.00,0.0369
2444.50,0.0369
2444.00,0.0368
2443.50,0.0368
2443.00,0.0368
2442.50,0.0368
2442.00,0.0368
2441.50,0.0368
2441.00,0.0368
2440.50,0.0368
2440.00,0.0368
2439.50,0.0368
2439.00,0.0368
2438.50,0.0368
2438.00,0.0368
2437.50,0.0368
2437.00,0.0368
2436.50,0.0368
2436.00,0.0368
2435.50,0.0368
2435.00,0.0368
2434.50,0.0368
2434.00,0.0368
2433.50,0.0367
2433.00,0.0367
2432.50,0.0367
2432.00,0.0367
2431.50,0.0367
2431.00,0.0367
2430.50,0.0367
2430.00,0.0367
2429.50,0.0367
2429.00,0.0367
2428.50,0.0367
2428.00,0.0367
2427.50,0.0367
2427.00,0.0367
2426.50,0.0367
2426.00,0.0367
2425.50,0.0367
2425.00,0.0367
2424.50,0.0367
2424.00,0.0367
2423.50,0.0367
2423.00,0.0367
2422.50,0.0367
2422.00,0.0367
2421.50,0.0366
2421.00,0.0366
2420.50,0.0366
2420.00,0.0366
2419.50,0.0366
2419.00,0.0366
2418.50,0.0366
2418.00,0.0366
2417.50,0.0367
2417.00,0.0367
2416.50,0.0367
2416.00,0.0366
2415.50,0.0366
2415.00,0.0366
2414.50,0.0366
2414.00,0.0367
2413.50,0.0367
2413.00,0.0367
2412.50,0.0367
2412.00,0.0367
2411.50,0.0367
2411.00,0.0366
2410.50,0.0366
2410.00,0.0366
2409.50,0.0366
2409.00,0.0366
2408.50,0.0366
2408.00,0.0366
2407.50,0.0366
2407.00,0.0366
2406.50,0.0366
2406.00,0.0366
2405.50,0.0366
2405.00,0.0366
2404.50,0.0366
2404.00,0.0366
2403.50,0.0366
2403.00,0.0366
2402.50,0.0366
2402.00,0.0366
2401.50,0.0366
2401.00,0.0366
2400.50,0.0366
2400.00,0.0366
2399.50,0.0366
2399.00,0.0365
2398.50,0.0365
2398.00,0.0365
2397.50,0.0365
2397.00,0.0365
2396.50,0.0365
2396.00,0.0365
2395.50,0.0365
2395.00,0.0365
2394.50,0.0365
2394.00,0.0365
2393.50,0.0365
2393.00,0.0365
2392.50,0.0365
2392.00,0.0365
2391.50,0.0365
2391.00,0.0365
2390.50,0.0365
2390.00,0.0365
2389.50,0.0365
2389.00,0.0365
2388.50,0.0365
2388.00,0.0365
2387.50,0.0365
2387.00,0.0365
2386.50,0.0365
2386.00,0.0365
2385.50,0.0365
2385.00,0.0365
2384.50,0.0365
2384.00,0.0365
2383.50,0.0364
2383.00,0.0365
2382.50,0.0365
2382.00,0.0365
2381.50,0.0365
2381.00,0.0365
2380.50,0.0366
2380.00,0.0366
2379.50,0.0367
2379.00,0.0367
2378.50,0.0368
2378.00,0.0369
2377.50,0.0370
2377.00,0.0370
2376.50,0.0371
2376.00,0.0371
2375.50,0.0371
2375.00,0.0371
2374.50,0.0371
2374.00,0.0370
2373.50,0.0370
2373.00,0.0370
2372.50,0.0369
2372.00,0.0369
2371.50,0.0369
2371.00,0.0369
2370.50,0.0369
2370.00,0.0369
2369.50,0.0368
2369.00,0.0368
2368.50,0.0368
2368.00,0.0368
2367.50,0.0368
2367.00,0.0369
2366.50,0.0369
2366.00,0.0369
2365.50,0.0369
2365.00,0.0369
2364.50,0.0370
2364.00,0.0370
2363.50,0.0370
2363.00,0.0370
2362.50,0.0370
2362.00,0.0369
2361.50,0.0369
2361.00,0.0369
2360.50,0.0369
2360.00,0.0369
2359.50,0.0370
2359.00,0.0370
2358.50,0.0369
2358.00,0.0368
2357.50,0.0368
2357.00,0.0368
2356.50,0.0368
2356.00,0.0369
2355.50,0.0369
2355.00,0.0370
2354.50,0.0370
2354.00,0.0370
2353.50,0.0369
2353.00,0.0369
2352.50,0.0370
2352.00,0.0370
2351.50,0.0370
2351.00,0.0369
2350.50,0.0368
2350.00,0.0367
2349.50,0.0367
2349.00,0.0368
2348.50,0.0369
2348.00,0.0370
2347.50,0.0370
2347.00,0.0371
2346.50,0.0371
2346.00,0.0371
2345.50,0.0370
2345.00,0.0369
2344.50,0.0368
2344.00,0.0367
2343.50,0.0366
2343.00,0.0366
2342.50,0.0366
2342.00,0.0367
2341.50,0.0367
2341.00,0.0367
2340.50,0.0368
2340.00,0.0369
2339.50,0.0369
2339.00,0.0369
2338.50,0.0370
2338.00,0.0370
2337.50,0.0369
2337.00,0.0369
2336.50,0.0369
2336.00,0.0370
2335.50,0.0370
2335.00,0.0370
2334.50,0.0370
2334.00,0.0370
2333.50,0.0369
2333.00,0.0369
2332.50,0.0370
2332.00,0.0370
2331.50,0.0369
2331.00,0.0369
2330.50,0.0369
2330.00,0.0369
2329.50,0.0369
2329.00,0.0368
2328.50,0.0368
2328.00,0.0368
2327.50,0.0367
2327.00,0.0367
2326.50,0.0368
2326.00,0.0368
2325.50,0.0368
2325.00,0.0367
2324.50,0.0367
2324.00,0.0368
2323.50,0.0368
2323.00,0.0367
2322.50,0.0367
2322.00,0.0368
2321.50,0.0367
2321.00,0.0367
2320.50,0.0367
2320.00,0.0368
2319.50,0.0368
2319.00,0.0367
2318.50,0.0367
2318.00,0.0367
2317.50,0.0367
2317.00,0.0366
2316.50,0.0366
2316.00,0.0367
2315.50,0.0367
2315.00,0.0367
2314.50,0.0367
2314.00,0.0367
2313.50,0.0367
2313.00,0.0367
2312.50,0.0366
2312.00,0.0366
2311.50,0.0366
2311.00,0.0366
2310.50,0.0365
2310.00,0.0366
2309.50,0.0366
2309.00,0.0366
2308.50,0.0365
2308.00,0.0365
2307.50,0.0366
2307.00,0.0366
2306.50,0.0365
2306.00,0.0366
2305.50,0.0366
2305.00,0.0366
2304.50,0.0366
2304.00,0.0366
2303.50,0.0366
2303.00,0.0366
2302.50,0.0366
2302.00,0.0366
2301.50,0.0366
2301.00,0.0366
2300.50,0.0366
2300.00,0.0366
2299.50,0.0366
2299.00,0.0366
2298.50,0.0366
2298.00,0.0366
2297.50,0.0366
2297.00,0.0367
2296.50,0.0367
2296.00,0.0367
2295.50,0.0367
2295.00,0.0367
2294.50,0.0367
2294.00,0.0367
2293.50,0.0367
2293.00,0.0367
2292.50,0.0367
2292.00,0.0367
2291.50,0.0368
2291.00,0.0368
2290.50,0.0368
2290.00,0.0368
2289.50,0.0368
2289.00,0.0368
2288.50,0.0368
2288.00,0.0368
2287.50,0.0368
2287.00,0.0368
2286.50,0.0368
2286.00,0.0368
2285.50,0.0369
2285.00,0.0369
2284.50,0.0369
2284.00,0.0369
2283.50,0.0369
2283.00,0.0369
2282.50,0.0369
2282.00,0.0369
2281.50,0.0369
2281.00,0.0369
2280.50,0.0369
2280.00,0.0369
2279.50,0.0370
2279.00,0.0370
2278.50,0.0370
2278.00,0.0370
2277.50,0.0370
2277.00,0.0370
2276.50,0.0370
2276.00,0.0370
2275.50,0.0370
2275.00,0.0370
2274.50,0.0370
2274.00,0.0370
2273.50,0.0371
2273.00,0.0371
2272.50,0.0371
2272.00,0.0371
2271.50,0.0371
2271.00,0.0371
2270.50,0.0371
2270.00,0.0371
2269.50,0.0371
2269.00,0.0371
2268.50,0.0371
2268.00,0.0371
2267.50,0.0371
2267.00,0.0371
2266.50,0.0371
2266.00,0.0371
2265.50,0.0371
2265.00,0.0371
2264.50,0.0371
2264.00,0.0371
2263.50,0.0371
2263.00,0.0371
2262.50,0.0371
2262.00,0.0371
2261.50,0.0371
2261.00,0.0371
2260.50,0.0371
2260.00,0.0371
2259.50,0.0371
2259.00,0.0371
2258.50,0.0371
2258.00,0.0371
2257.50,0.0371
2257.00,0.0371
2256.50,0.0371
2256.00,0.0371
2255.50,0.0371
2255.00,0.0371
2254.50,0.0371
2254.00,0.0371
2253.50,0.0371
2253.00,0.0371
2252.50,0.0371
2252.00,0.0371
2251.50,0.0371
2251.00,0.0371
2250.50,0.0372
2250.00,0.0372
2249.50,0.0372
2249.00,0.0372
2248.50,0.0372
2248.00,0.0372
2247.50,0.0372
2247.00,0.0372
2246.50,0.0372
2246.00,0.0372
2245.50,0.0372
2245.00,0.0373
2244.50,0.0373
2244.00,0.0373
2243.50,0.0373
2243.00,0.0373
2242.50,0.0373
2242.00,0.0373
2241.50,0.0373
2241.00,0.0374
2240.50,0.0374
2240.00,0.0374
2239.50,0.0374
2239.00,0.0374
2238.50,0.0374
2238.00,0.0374
2237.50,0.0374
2237.00,0.0375
2236.50,0.0375
2236.00,0.0375
2235.50,0.0375
2235.00,0.0375
2234.50,0.0376
2234.00,0.0376
2233.50,0.0376
2233.00,0.0376
2232.50,0.0376
2232.00,0.0376
2231.50,0.0377
2231.00,0.0377
2230.50,0.0377
2230.00,0.0377
2229.50,0.0378
2229.00,0.0378
2228.50,0.0378
2228.00,0.0378
2227.50,0.0379
2227.00,0.0379
2226.50,0.0379
2226.00,0.0379
2225.50,0.0380
2225.00,0.0380
2224.50,0.0380
2224.00,0.0380
2223.50,0.0381
2223.00,0.0381
2222.50,0.0381
2222.00,0.0382
2221.50,0.0382
2221.00,0.0383
2220.50,0.0383
2220.00,0.0383
2219.50,0.0384
2219.00,0.0384
2218.50,0.0385
2218.00,0.0385
2217.50,0.0386
2217.00,0.0386
2216.50,0.0386
2216.00,0.0387
2215.50,0.0387
2215.00,0.0388
2214.50,0.0388
2214.00,0.0389
2213.50,0.0390
2213.00,0.0390
2212.50,0.0391
2212.00,0.0391
2211.50,0.0392
2211.00,0.0392
2210.50,0.0393
2210.00,0.0394
2209.50,0.0394
2209.00,0.0395
2208.50,0.0396
2208.00,0.0397
2207.50,0.0397
2207.00,0.0398
2206.50,0.0399
2206.00,0.0400
2205.50,0.0401
2205.00,0.0402
2204.50,0.0403
2204.00,0.0403
2203.50,0.0404
2203.00,0.0405
2202.50,0.0406
2202.00,0.0408
2201.50,0.0409
2201.00,0.0410
2200.50,0.0411
2200.00,0.0412
2199.50,0.0414
2199.00,0.0415
2198.50,0.0416
2198.00,0.0418
2197.50,0.0419
2197.00,0.0421
2196.50,0.0422
2196.00,0.0424
2195.50,0.0426
2195.00,0.0428
2194.50,0.0429
2194.00,0.0431
2193.50,0.0433
2193.00,0.0435
2192.50,0.0438
2192.00,0.0440
2191.50,0.0442
2191.00,0.0445
2190.50,0.0447
2190.00,0.0450
2189.50,0.0452
2189.00,0.0455
2188.50,0.0458
2188.00,0.0461
2187.50,0.0464
2187.00,0.0467
2186.50,0.0470
2186.00,0.0473
2185.50,0.0477
2185.00,0.0480
2184.50,0.0483
2184.00,0.0487
2183.50,0.0491
2183.00,0.0494
2182.50,0.0498
2182.00,0.0502
2181.50,0.0506
2181.00,0.0511
2180.50,0.0515
2180.00,0.0519
2179.50,0.0524
2179.00,0.0528
2178.50,0.0532
2178.00,0.0537
2177.50,0.0541
2177.00,0.0546
2176.50,0.0550
2176.00,0.0554
2175.50,0.0559
2175.00,0.0563
2174.50,0.0567
2174.00,0.0572
2173.50,0.0576
2173.00,0.0580
2172.50,0.0584
2172.00,0.0588
2171.50,0.0592
2171.00,0.0596
2170.50,0.0599
2170.00,0.0603
2169.50,0.0606
2169.00,0.0609
2168.50,0.0612
2168.00,0.0614
2167.50,0.0617
2167.00,0.0619
2166.50,0.0622
2166.00,0.0623
2165.50,0.0625
2165.00,0.0626
2164.50,0.0628
2164.00,0.0628
2163.50,0.0629
2163.00,0.0629
2162.50,0.0629
2162.00,0.0629
2161.50,0.0629
2161.00,0.0628
2160.50,0.0627
2160.00,0.0626
2159.50,0.0625
2159.00,0.0623
2158.50,0.0621
2158.00,0.0619
2157.50,0.0617
2157.00,0.0614
2156.50,0.0612
2156.00,0.0609
2155.50,0.0606
2155.00,0.0602
2154.50,0.0599
2154.00,0.0595
2153.50,0.0591
2153.00,0.0588
2152.50,0.0584
2152.00,0.0579
2151.50,0.0575
2151.00,0.0571
2150.50,0.0567
2150.00,0.0562
2149.50,0.0558
2149.00,0.0554
2148.50,0.0549
2148.00,0.0545
2147.50,0.0540
2147.00,0.0536
2146.50,0.0532
2146.00,0.0527
2145.50,0.0523
2145.00,0.0519
2144.50,0.0514
2144.00,0.0510
2143.50,0.0506
2143.00,0.0502
2142.50,0.0498
2142.00,0.0494
2141.50,0.0491
2141.00,0.0487
2140.50,0.0484
2140.00,0.0480
2139.50,0.0477
2139.00,0.0473
2138.50,0.0470
2138.00,0.0467
2137.50,0.0464
2137.00,0.0461
2136.50,0.0458
2136.00,0.0456
2135.50,0.0453
2135.00,0.0450
2134.50,0.0448
2134.00,0.0446
2133.50,0.0443
2133.00,0.0441
2132.50,0.0439
2132.00,0.0437
2131.50,0.0435
2131.00,0.0433
2130.50,0.0432
2130.00,0.0430
2129.50,0.0428
2129.00,0.0427
2128.50,0.0425
2128.00,0.0424
2127.50,0.0423
2127.00,0.0421
2126.50,0.0420
2126.00,0.0419
2125.50,0.0418
2125.00,0.0417
2124.50,0.0416
2124.00,0.0414
2123.50,0.0413
2123.00,0.0413
2122.50,0.0412
2122.00,0.0411
2121.50,0.0410
2121.00,0.0409
2120.50,0.0408
2120.00,0.0407
2119.50,0.0407
2119.00,0.0406
2118.50,0.0405
2118.00,0.0405
2117.50,0.0404
2117.00,0.0404
2116.50,0.0403
2116.00,0.0403
2115.50,0.0402
2115.00,0.0401
2114.50,0.0401
2114.00,0.0400
2113.50,0.0400
2113.00,0.0400
2112.50,0.0399
2112.00,0.0399
2111.50,0.0399
2111.00,0.0398
2110.50,0.0398
2110.00,0.0398
2109.50,0.0397
2109.00,0.0397
2108.50,0.0397
2108.00,0.0397
2107.50,0.0396
2107.00,0.0396
2106.50,0.0396
2106.00,0.0396
2105.50,0.0395
2105.00,0.0395
2104.50,0.0395
2104.00,0.0395
2103.50,0.0395
2103.00,0.0394
2102.50,0.0394
2102.00,0.0394
2101.50,0.0394
2101.00,0.0394
2100.50,0.0394
2100.00,0.0393
2099.50,0.0393
2099.00,0.0393
2098.50,0.0393
2098.00,0.0393
2097.50,0.0392
2097.00,0.0392
2096.50,0.0392
2096.00,0.0392
2095.50,0.0392
2095.00,0.0392
2094.50,0.0391
2094.00,0.0391
2093.50,0.0391
2093.00,0.0391
2092.50,0.0391
2092.00,0.0391
2091.50,0.0391
2091.00,0.0391
2090.50,0.0390
2090.00,0.0390
2089.50,0.0390
2089.00,0.0390
2088.50,0.0390
2088.00,0.0390
2087.50,0.0390
2087.00,0.0390
2086.50,0.0390
2086.00,0.0390
2085.50,0.0390
2085.00,0.0390
2084.50,0.0390
2084.00,0.0390
2083.50,0.0390
2083.00,0.0390
2082.50,0.0390
2082.00,0.0390
2081.50,0.0391
2081.00,0.0391
2080.50,0.0391
2080.00,0.0391
2079.50,0.0391
2079.00,0.0391
2078.50,0.0391
2078.00,0.0391
2077.50,0.0391
2077.00,0.0391
2076.50,0.0391
2076.00,0.0391
2075.50,0.0391
2075.00,0.0392
2074.50,0.0392
2074.00,0.0392
2073.50,0.0392
2073.00,0.0392
2072.50,0.0392
2072.00,0.0392
2071.50,0.0393
2071.00,0.0393
2070.50,0.0393
2070.00,0.0393
2069.50,0.0394
2069.00,0.0394
2068.50,0.0394
2068.00,0.0394
2067.50,0.0394
2067.00,0.0395
2066.50,0.0395
2066.00,0.0395
2065.50,0.0395
2065.00,0.0396
2064.50,0.0396
2064.00,0.0396
2063.50,0.0396
2063.00,0.0397
2062.50,0.0397
2062.00,0.0397
2061.50,0.0398
2061.00,0.0398
2060.50,0.0398
2060.00,0.0398
2059.50,0.0399
2059.00,0.0399
2058.50,0.0399
2058.00,0.0399
2057.50,0.0400
2057.00,0.0400
2056.50,0.0400
2056.00,0.0400
2055.50,0.0401
2055.00,0.0401
2054.50,0.0401
2054.00,0.0401
2053.50,0.0401
2053.00,0.0401
2052.50,0.0401
2052.00,0.0402
2051.50,0.0402
2051.00,0.0402
2050.50,0.0401
2050.00,0.0401
2049.50,0.0401
2049.00,0.0401
2048.50,0.0400
2048.00,0.0400
2047.50,0.0399
2047.00,0.0399
2046.50,0.0398
2046.00,0.0398
2045.50,0.0397
2045.00,0.0396
2044.50,0.0395
2044.00,0.0394
2043.50,0.0394
2043.00,0.0393
2042.50,0.0392
2042.00,0.0391
2041.50,0.0390
2041.00,0.0389
2040.50,0.0388
2040.00,0.0387
2039.50,0.0387
2039.00,0.0386
2038.50,0.0385
2038.00,0.0385
2037.50,0.0384
2037.00,0.0383
2036.50,0.0383
2036.00,0.0382
2035.50,0.0382
2035.00,0.0382
2034.50,0.0381
2034.00,0.0381
2033.50,0.0381
2033.00,0.0380
2032.50,0.0380
2032.00,0.0380
2031.50,0.0380
2031.00,0.0379
2030.50,0.0379
2030.00,0.0379
2029.50,0.0379
2029.00,0.0379
2028.50,0.0379
2028.00,0.0379
2027.50,0.0379
2027.00,0.0379
2026.50,0.0380
2026.00,0.0380
2025.50,0.0380
2025.00,0.0380
2024.50,0.0380
2024.00,0.0380
2023.50,0.0380
2023.00,0.0381
2022.50,0.0381
2022.00,0.0381
2021.50,0.0382
2021.00,0.0382
2020.50,0.0383
2020.00,0.0383
2019.50,0.0383
2019.00,0.0384
2018.50,0.0384
2018.00,0.0384
2017.50,0.0385
2017.00,0.0385
2016.50,0.0386
2016.00,0.0386
2015.50,0.0386
2015.00,0.0387
2014.50,0.0387
2014.00,0.0388
2013.50,0.0388
2013.00,0.0389
2012.50,0.0389
2012.00,0.0390
2011.50,0.0390
2011.00,0.0391
2010.50,0.0391
2010.00,0.0392
2009.50,0.0392
2009.00,0.0393
2008.50,0.0393
2008.00,0.0393
2007.50,0.0394
2007.00,0.0394
2006.50,0.0394
2006.00,0.0394
2005.50,0.0395
2005.00,0.0395
2004.50,0.0395
2004.00,0.0395
2003.50,0.0396
2003.00,0.0396
2002.50,0.0396
2002.00,0.0396
2001.50,0.0397
2001.00,0.0397
2000.50,0.0397
2000.00,0.0397
1999.50,0.0398
1999.00,0.0398
1998.50,0.0398
1998.00,0.0398
1997.50,0.0398
1997.00,0.0398
1996.50,0.0398
1996.00,0.0398
1995.50,0.0398
1995.00,0.0398
1994.50,0.0398
1994.00,0.0398
1993.50,0.0398
1993.00,0.0398
1992.50,0.0397
1992.00,0.0397
1991.50,0.0397
1991.00,0.0397
1990.50,0.0398
1990.00,0.0398
1989.50,0.0398
1989.00,0.0398
1988.50,0.0398
1988.00,0.0399
1987.50,0.0399
1987.00,0.0399
1986.50,0.0400
1986.00,0.0400
1985.50,0.0400
1985.00,0.0401
1984.50,0.0401
1984.00,0.0402
1983.50,0.0402
1983.00,0.0403
1982.50,0.0404
1982.00,0.0404
1981.50,0.0405
1981.00,0.0405
1980.50,0.0406
1980.00,0.0407
1979.50,0.0408
1979.00,0.0408
1978.50,0.0409
1978.00,0.0410
1977.50,0.0411
1977.00,0.0412
1976.50,0.0412
1976.00,0.0413
1975.50,0.0414
1975.00,0.0415
1974.50,0.0416
1974.00,0.0417
1973.50,0.0418
1973.00,0.0420
1972.50,0.0421
1972.00,0.0422
1971.50,0.0423
1971.00,0.0424
1970.50,0.0425
1970.00,0.0427
1969.50,0.0428
1969.00,0.0429
1968.50,0.0430
1968.00,0.0431
1967.50,0.0432
1967.00,0.0433
1966.50,0.0435
1966.00,0.0436
1965.50,0.0437
1965.00,0.0438
1964.50,0.0439
1964.00,0.0440
1963.50,0.0441
1963.00,0.0442
1962.50,0.0443
1962.00,0.0444
1961.50,0.0445
1961.00,0.0445
1960.50,0.0446
1960.00,0.0447
1959.50,0.0448
1959.00,0.0449
1958.50,0.0450
1958.00,0.0451
1957.50,0.0452
1957.00,0.0453
1956.50,0.0454
1956.00,0.0455
1955.50,0.0456
1955.00,0.0457
1954.50,0.0458
1954.00,0.0459
1953.50,0.0460
1953.00,0.0462
1952.50,0.0463
1952.00,0.0464
1951.50,0.0465
1951.00,0.0466
1950.50,0.0468
1950.00,0.0469
1949.50,0.0470
1949.00,0.0471
1948.50,0.0472
1948.00,0.0473
1947.50,0.0474
1947.00,0.0475
1946.50,0.0476
1946.00,0.0477
1945.50,0.0477
1945.00,0.0477
1944.50,0.0478
1944.00,0.0478
1943.50,0.0477
1943.00,0.0477
1942.50,0.0477
1942.00,0.0476
1941.50,0.0475
1941.00,0.0474
1940.50,0.0473
1940.00,0.0471
1939.50,0.0470
1939.00,0.0468
1938.50,0.0466
1938.00,0.0465
1937.50,0.0463
1937.00,0.0461
1936.50,0.0459
1936.00,0.0457
1935.50,0.0455
1935.00,0.0453
1934.50,0.0452
1934.00,0.0450
1933.50,0.0448
1933.00,0.0447
1932.50,0.0445
1932.00,0.0444
1931.50,0.0443
1931.00,0.0442
1930.50,0.0441
1930.00,0.0439
1929.50,0.0438
1929.00,0.0438
1928.50,0.0437
1928.00,0.0436
1927.50,0.0436
1927.00,0.0435
1926.50,0.0434
1926.00,0.0434
1925.50,0.0433
1925.00,0.0433
1924.50,0.0432
1924.00,0.0432
1923.50,0.0431
1923.00,0.0431
1922.50,0.0430
1922.00,0.0429
1921.50,0.0429
1921.00,0.0429
1920.50,0.0429
1920.00,0.0429
1919.50,0.0428
1919.00,0.0428
1918.50,0.0427
1918.00,0.0427
1917.50,0.0426
1917.00,0.0425
1916.50,0.0424
1916.00,0.0424
1915.50,0.0423
1915.00,0.0422
1914.50,0.0422
1914.00,0.0421
1913.50,0.0420
1913.00,0.0420
1912.50,0.0419
1912.00,0.0418
1911.50,0.0417
1911.00,0.0416
1910.50,0.0416
1910.00,0.0415
1909.50,0.0414
1909.00,0.0413
1908.50,0.0413
1908.00,0.0412
1907.50,0.0411
1907.00,0.0411
1906.50,0.0411
1906.00,0.0410
1905.50,0.0410
1905.00,0.0409
1904.50,0.0409
1904.00,0.0408
1903.50,0.0408
1903.00,0.0408
1902.50,0.0407
1902.00,0.0407
1901.50,0.0407
1901.00,0.0407
1900.50,0.0406
1900.00,0.0406
1899.50,0.0406
1899.00,0.0406
1898.50,0.0406
1898.00,0.0405
1897.50,0.0405
1897.00,0.0405
1896.50,0.0405
1896.00,0.0405
1895.50,0.0405
1895.00,0.0405
1894.50,0.0405
1894.00,0.0405
1893.50,0.0405
1893.00,0.0405
1892.50,0.0405
1892.00,0.0405
1891.50,0.0405
1891.00,0.0405
1890.50,0.0405
1890.00,0.0405
1889.50,0.0405
1889.00,0.0404
1888.50,0.0404
1888.00,0.0405
1887.50,0.0405
1887.00,0.0405
1886.50,0.0405
1886.00,0.0405
1885.50,0.0405
1885.00,0.0405
1884.50,0.0405
1884.00,0.0405
1883.50,0.0405
1883.00,0.0405
1882.50,0.0405
1882.00,0.0405
1881.50,0.0405
1881.00,0.0405
1880.50,0.0405
1880.00,0.0405
1879.50,0.0406
1879.00,0.0406
1878.50,0.0406
1878.00,0.0406
1877.50,0.0406
1877.00,0.0406
1876.50,0.0406
1876.00,0.0406
1875.50,0.0406
1875.00,0.0406
1874.50,0.0406
1874.00,0.0406
1873.50,0.0406
1873.00,0.0406
1872.50,0.0406
1872.00,0.0407
1871.50,0.0407
1871.00,0.0406
1870.50,0.0406
1870.00,0.0406
1869.50,0.0406
1869.00,0.0406
1868.50,0.0406
1868.00,0.0405
1867.50,0.0405
1867.00,0.0406
1866.50,0.0406
1866.00,0.0406
1865.50,0.0406
1865.00,0.0406
1864.50,0.0406
1864.00,0.0406
1863.50,0.0406
1863.00,0.0406
1862.50,0.0406
1862.00,0.0406
1861.50,0.0406
1861.00,0.0406
1860.50,0.0406
1860.00,0.0406
1859.50,0.0406
1859.00,0.0406
1858.50,0.0406
1858.00,0.0406
1857.50,0.0406
1857.00,0.0406
1856.50,0.0406
1856.00,0.0406
1855.50,0.0406
1855.00,0.0406
1854.50,0.0406
1854.00,0.0406
1853.50,0.0406
1853.00,0.0406
1852.50,0.0406
1852.00,0.0406
1851.50,0.0406
1851.00,0.0406
1850.50,0.0406
1850.00,0.0406
1849.50,0.0406
1849.00,0.0406
1848.50,0.0406
1848.00,0.0406
1847.50,0.0405
1847.00,0.0405
1846.50,0.0405
1846.00,0.0405
1845.50,0.0405
1845.00,0.0404
1844.50,0.0405
1844.00,0.0405
1843.50,0.0405
1843.00,0.0405
1842.50,0.0405
1842.00,0.0404
1841.50,0.0404
1841.00,0.0404
1840.50,0.0404
1840.00,0.0405
1839.50,0.0405
1839.00,0.0405
1838.50,0.0405
1838.00,0.0405
1837.50,0.0405
1837.00,0.0405
1836.50,0.0405
1836.00,0.0405
1835.50,0.0404
1835.00,0.0404
1834.50,0.0405
1834.00,0.0405
1833.50,0.0405
1833.00,0.0405
1832.50,0.0405
1832.00,0.0405
1831.50,0.0405
1831.00,0.0405
1830.50,0.0405
1830.00,0.0405
1829.50,0.0404
1829.00,0.0404
1828.50,0.0405
1828.00,0.0405
1827.50,0.0406
1827.00,0.0406
1826.50,0.0406
1826.00,0.0406
1825.50,0.0407
1825.00,0.0407
1824.50,0.0407
1824.00,0.0407
1823.50,0.0408
1823.00,0.0408
1822.50,0.0408
1822.00,0.0408
1821.50,0.0409
1821.00,0.0409
1820.50,0.0409
1820.00,0.0410
1819.50,0.0410
1819.00,0.0410
1818.50,0.0411
1818.00,0.0411
1817.50,0.0411
1817.00,0.0412
1816.50,0.0412
1816.00,0.0412
1815.50,0.0413
1815.00,0.0413
1814.50,0.0414
1814.00,0.0414
1813.50,0.0414
1813.00,0.0415
1812.50,0.0415
1812.00,0.0415
1811.50,0.0416
1811.00,0.0416
1810.50,0.0416
1810.00,0.0417
1809.50,0.0417
1809.00,0.0418
1808.50,0.0418
1808.00,0.0419
1807.50,0.0419
1807.00,0.0420
1806.50,0.0420
1806.00,0.0421
1805.50,0.0421
1805.00,0.0422
1804.50,0.0422
1804.00,0.0423
1803.50,0.0423
1803.00,0.0424
1802.50,0.0424
1802.00,0.0424
1801.50,0.0425
1801.00,0.0425
1800.50,0.0425
1800.00,0.0426
1799.50,0.0426
1799.00,0.0426
1798.50,0.0427
1798.00,0.0428
1797.50,0.0428
1797.00,0.0429
1796.50,0.0429
1796.00,0.0429
1795.50,0.0430
1795.00,0.0430
1794.50,0.0431
1794.00,0.0431
1793.50,0.0432
1793.00,0.0432
1792.50,0.0433
1792.00,0.0433
1791.50,0.0433
1791.00,0.0433
1790.50,0.0434
1790.00,0.0434
1789.50,0.0435
1789.00,0.0435
1788.50,0.0436
1788.00,0.0436
1787.50,0.0437
1787.00,0.0437
1786.50,0.0438
1786.00,0.0438
1785.50,0.0438
1785.00,0.0438
1784.50,0.0438
1784.00,0.0439
1783.50,0.0439
1783.00,0.0439
1782.50,0.0440
1782.00,0.0440
1781.50,0.0440
1781.00,0.0440
1780.50,0.0440
1780.00,0.0440
1779.50,0.0440
1779.00,0.0440
1778.50,0.0440
1778.00,0.0440
1777.50,0.0441
1777.00,0.0441
1776.50,0.0441
1776.00,0.0440
1775.50,0.0440
1775.00,0.0440
1774.50,0.0440
1774.00,0.0440
1773.50,0.0440
1773.00,0.0441
1772.50,0.0441
1772.00,0.0440
1771.50,0.0439
1771.00,0.0439
1770.50,0.0439
1770.00,0.0440
1769.50,0.0439
1769.00,0.0440
1768.50,0.0440
1768.00,0.0440
1767.50,0.0440
1767.00,0.0439
1766.50,0.0439
1766.00,0.0439
1765.50,0.0439
1765.00,0.0439
1764.50,0.0439
1764.00,0.0439
1763.50,0.0439
1763.00,0.0439
1762.50,0.0438
1762.00,0.0438
1761.50,0.0438
1761.00,0.0438
1760.50,0.0438
1760.00,0.0438
1759.50,0.0438
1759.00,0.0438
1758.50,0.0438
1758.00,0.0438
1757.50,0.0437
1757.00,0.0438
1756.50,0.0437
1756.00,0.0437
1755.50,0.0437
1755.00,0.0437
1754.50,0.0437
1754.00,0.0437
1753.50,0.0438
1753.00,0.0438
1752.50,0.0438
1752.00,0.0438
1751.50,0.0438
1751.00,0.0438
1750.50,0.0438
1750.00,0.0437
1749.50,0.0437
1749.00,0.0437
1748.50,0.0437
1748.00,0.0436
1747.50,0.0437
1747.00,0.0437
1746.50,0.0437
1746.00,0.0438
1745.50,0.0438
1745.00,0.0439
1744.50,0.0439
1744.00,0.0439
1743.50,0.0438
1743.00,0.0438
1742.50,0.0438
1742.00,0.0439
1741.50,0.0439
1741.00,0.0439
1740.50,0.0439
1740.00,0.0439
1739.50,0.0439
1739.00,0.0439
1738.50,0.0439
1738.00,0.0439
1737.50,0.0439
1737.00,0.0440
1736.50,0.0440
1736.00,0.0440
1735.50,0.0441
1735.00,0.0442
1734.50,0.0443
1734.00,0.0443
1733.50,0.0442
1733.00,0.0442
1732.50,0.0442
1732.00,0.0442
1731.50,0.0443
1731.00,0.0443
1730.50,0.0443
1730.00,0.0443
1729.50,0.0443
1729.00,0.0444
1728.50,0.0444
1728.00,0.0444
1727.50,0.0445
1727.00,0.0445
1726.50,0.0445
1726.00,0.0445
1725.50,0.0446
1725.00,0.0446
1724.50,0.0446
1724.00,0.0446
1723.50,0.0446
1723.00,0.0446
1722.50,0.0446
1722.00,0.0446
1721.50,0.0446
1721.00,0.0447
1720.50,0.0447
1720.00,0.0447
1719.50,0.0447
1719.00,0.0447
1718.50,0.0447
1718.00,0.0446
1717.50,0.0446
1717.00,0.0447
1716.50,0.0447
1716.00,0.0447
1715.50,0.0446
1715.00,0.0446
1714.50,0.0446
1714.00,0.0446
1713.50,0.0446
1713.00,0.0446
1712.50,0.0446
1712.00,0.0446
1711.50,0.0446
1711.00,0.0446
1710.50,0.0446
1710.00,0.0446
1709.50,0.0446
1709.00,0.0446
1708.50,0.0446
1708.00,0.0446
1707.50,0.0446
1707.00,0.0446
1706.50,0.0445
1706.00,0.0445
1705.50,0.0445
1705.00,0.0445
1704.50,0.0445
1704.00,0.0445
1703.50,0.0446
1703.00,0.0446
1702.50,0.0446
1702.00,0.0446
1701.50,0.0445
1701.00,0.0446
1700.50,0.0448
1700.00,0.0445
1699.50,0.0446
1699.00,0.0447
1698.50,0.0447
1698.00,0.0446
1697.50,0.0446
1697.00,0.0446
1696.50,0.0447
1696.00,0.0448
1695.50,0.0448
1695.00,0.0449
1694.50,0.0448
1694.00,0.0448
1693.50,0.0448
1693.00,0.0448
1692.50,0.0448
1692.00,0.0449
1691.50,0.0449
1691.00,0.0449
1690.50,0.0449
1690.00,0.0449
1689.50,0.0449
1689.00,0.0449
1688.50,0.0449
1688.00,0.0449
1687.50,0.0450
1687.00,0.0450
1686.50,0.0450
1686.00,0.0450
1685.50,0.0451
1685.00,0.0452
1684.50,0.0453
1684.00,0.0451
1683.50,0.0449
1683.00,0.0450
1682.50,0.0451
1682.00,0.0452
1681.50,0.0452
1681.00,0.0453
1680.50,0.0453
1680.00,0.0453
1679.50,0.0453
1679.00,0.0454
1678.50,0.0454
1678.00,0.0455
1677.50,0.0455
1677.00,0.0456
1676.50,0.0456
1676.00,0.0457
1675.50,0.0457
1675.00,0.0457
1674.50,0.0458
1674.00,0.0458
1673.50,0.0458
1673.00,0.0458
1672.50,0.0459
1672.00,0.0459
1671.50,0.0460
1671.00,0.0460
1670.50,0.0460
1670.00,0.0461
1669.50,0.0461
1669.00,0.0462
1668.50,0.0462
1668.00,0.0462
1667.50,0.0463
1667.00,0.0464
1666.50,0.0464
1666.00,0.0465
1665.50,0.0466
1665.00,0.0466
1664.50,0.0466
1664.00,0.0467
1663.50,0.0467
1663.00,0.0467
1662.50,0.0468
1662.00,0.0468
1661.50,0.0469
1661.00,0.0469
1660.50,0.0470
1660.00,0.0470
1659.50,0.0471
1659.00,0.0472
1658.50,0.0472
1658.00,0.0472
1657.50,0.0473
1657.00,0.0474
1656.50,0.0474
1656.00,0.0474
1655.50,0.0474
1655.00,0.0475
1654.50,0.0475
1654.00,0.0475
1653.50,0.0476
1653.00,0.0475
1652.50,0.0475
1652.00,0.0477
1651.50,0.0479
1651.00,0.0479
1650.50,0.0479
1650.00,0.0479
1649.50,0.0479
1649.00,0.0480
1648.50,0.0480
1648.00,0.0480
1647.50,0.0480
1647.00,0.0480
1646.50,0.0481
1646.00,0.0482
1645.50,0.0483
1645.00,0.0484
1644.50,0.0484
1644.00,0.0484
1643.50,0.0484
1643.00,0.0485
1642.50,0.0486
1642.00,0.0486
1641.50,0.0486
1641.00,0.0487
1640.50,0.0487
1640.00,0.0487
1639.50,0.0487
1639.00,0.0488
1638.50,0.0488
1638.00,0.0488
1637.50,0.0489
1637.00,0.0489
1636.50,0.0489
1636.00,0.0490
1635.50,0.0490
1635.00,0.0490
1634.50,0.0491
1634.00,0.0491
1633.50,0.0491
1633.00,0.0492
1632.50,0.0493
1632.00,0.0493
1631.50,0.0494
1631.00,0.0494
1630.50,0.0495
1630.00,0.0495
1629.50,0.0496
1629.00,0.0496
1628.50,0.0496
1628.00,0.0496
1627.50,0.0497
1627.00,0.0497
1626.50,0.0498
1626.00,0.0499
1625.50,0.0499
1625.00,0.0500
1624.50,0.0500
1624.00,0.0501
1623.50,0.0501
1623.00,0.0502
1622.50,0.0502
1622.00,0.0503
1621.50,0.0503
1621.00,0.0504
1620.50,0.0505
1620.00,0.0505
1619.50,0.0506
1619.00,0.0507
1618.50,0.0507
1618.00,0.0507
1617.50,0.0508
1617.00,0.0510
1616.50,0.0510
1616.00,0.0511
1615.50,0.0511
1615.00,0.0511
1614.50,0.0512
1614.00,0.0512
1613.50,0.0513
1613.00,0.0514
1612.50,0.0514
1612.00,0.0515
1611.50,0.0515
1611.00,0.0516
1610.50,0.0516
1610.00,0.0517
1609.50,0.0517
1609.00,0.0518
1608.50,0.0518
1608.00,0.0518
1607.50,0.0519
1607.00,0.0520
1606.50,0.0520
1606.00,0.0521
1605.50,0.0522
1605.00,0.0522
1604.50,0.0523
1604.00,0.0524
1603.50,0.0525
1603.00,0.0526
1602.50,0.0527
1602.00,0.0528
1601.50,0.0530
1601.00,0.0532
1600.50,0.0535
1600.00,0.0538
1599.50,0.0542
1599.00,0.0547
1598.50,0.0551
1598.00,0.0555
1597.50,0.0558
1597.00,0.0560
1596.50,0.0560
1596.00,0.0557
1595.50,0.0554
1595.00,0.0549
1594.50,0.0544
1594.00,0.0539
1593.50,0.0535
1593.00,0.0531
1592.50,0.0529
1592.00,0.0526
1591.50,0.0525
1591.00,0.0523
1590.50,0.0522
1590.00,0.0520
1589.50,0.0519
1589.00,0.0518
1588.50,0.0517
1588.00,0.0516
1587.50,0.0515
1587.00,0.0515
1586.50,0.0514
1586.00,0.0513
1585.50,0.0512
1585.00,0.0511
1584.50,0.0511
1584.00,0.0510
1583.50,0.0509
1583.00,0.0509
1582.50,0.0508
1582.00,0.0507
1581.50,0.0507
1581.00,0.0506
1580.50,0.0506
1580.00,0.0505
1579.50,0.0504
1579.00,0.0504
1578.50,0.0503
1578.00,0.0503
1577.50,0.0502
1577.00,0.0502
1576.50,0.0502
1576.00,0.0501
1575.50,0.0500
1575.00,0.0499
1574.50,0.0498
1574.00,0.0497
1573.50,0.0497
1573.00,0.0496
1572.50,0.0496
1572.00,0.0496
1571.50,0.0495
1571.00,0.0495
1570.50,0.0494
1570.00,0.0494
1569.50,0.0492
1569.00,0.0491
1568.50,0.0491
1568.00,0.0490
1567.50,0.0490
1567.00,0.0491
1566.50,0.0491
1566.00,0.0490
1565.50,0.0490
1565.00,0.0489
1564.50,0.0489
1564.00,0.0488
1563.50,0.0488
1563.00,0.0488
1562.50,0.0488
1562.00,0.0488
1561.50,0.0488
1561.00,0.0488
1560.50,0.0490
1560.00,0.0492
1559.50,0.0490
1559.00,0.0488
1558.50,0.0486
1558.00,0.0485
1557.50,0.0486
1557.00,0.0487
1556.50,0.0487
1556.00,0.0487
1555.50,0.0487
1555.00,0.0487
1554.50,0.0488
1554.00,0.0488
1553.50,0.0487
1553.00,0.0487
1552.50,0.0487
1552.00,0.0487
1551.50,0.0487
1551.00,0.0487
1550.50,0.0487
1550.00,0.0487
1549.50,0.0486
1549.00,0.0486
1548.50,0.0486
1548.00,0.0487
1547.50,0.0487
1547.00,0.0487
1546.50,0.0488
1546.00,0.0488
1545.50,0.0488
1545.00,0.0487
1544.50,0.0487
1544.00,0.0487
1543.50,0.0487
1543.00,0.0487
1542.50,0.0487
1542.00,0.0488
1541.50,0.0488
1541.00,0.0488
1540.50,0.0489
1540.00,0.0488
1539.50,0.0487
1539.00,0.0487
1538.50,0.0487
1538.00,0.0488
1537.50,0.0488
1537.00,0.0488
1536.50,0.0488
1536.00,0.0489
1535.50,0.0489
1535.00,0.0489
1534.50,0.0489
1534.00,0.0489
1533.50,0.0489
1533.00,0.0488
1532.50,0.0489
1532.00,0.0489
1531.50,0.0489
1531.00,0.0489
1530.50,0.0490
1530.00,0.0490
1529.50,0.0490
1529.00,0.0490
1528.50,0.0490
1528.00,0.0490
1527.50,0.0490
1527.00,0.0490
1526.50,0.0491
1526.00,0.0491
1525.50,0.0491
1525.00,0.0491
1524.50,0.0491
1524.00,0.0491
1523.50,0.0491
1523.00,0.0491
1522.50,0.0491
1522.00,0.0491
1521.50,0.0491
1521.00,0.0491
1520.50,0.0490
1520.00,0.0490
1519.50,0.0490
1519.00,0.0490
1518.50,0.0490
1518.00,0.0490
1517.50,0.0490
1517.00,0.0489
1516.50,0.0489
1516.00,0.0489
1515.50,0.0489
1515.00,0.0490
1514.50,0.0490
1514.00,0.0490
1513.50,0.0490
1513.00,0.0491
1512.50,0.0491
1512.00,0.0490
1511.50,0.0490
1511.00,0.0491
1510.50,0.0490
1510.00,0.0490
1509.50,0.0490
1509.00,0.0490
1508.50,0.0491
1508.00,0.0491
1507.50,0.0492
1507.00,0.0492
1506.50,0.0490
1506.00,0.0489
1505.50,0.0490
1505.00,0.0491
1504.50,0.0491
1504.00,0.0491
1503.50,0.0491
1503.00,0.0491
1502.50,0.0492
1502.00,0.0492
1501.50,0.0492
1501.00,0.0492
1500.50,0.0493
1500.00,0.0493
1499.50,0.0493
1499.00,0.0494
1498.50,0.0494
1498.00,0.0494
1497.50,0.0494
1497.00,0.0495
1496.50,0.0497
1496.00,0.0497
1495.50,0.0497
1495.00,0.0497
1494.50,0.0498
1494.00,0.0498
1493.50,0.0499
1493.00,0.0500
1492.50,0.0501
1492.00,0.0502
1491.50,0.0503
1491.00,0.0504
1490.50,0.0505
1490.00,0.0506
1489.50,0.0508
1489.00,0.0510
1488.50,0.0511
1488.00,0.0513
1487.50,0.0514
1487.00,0.0515
1486.50,0.0516
1486.00,0.0517
1485.50,0.0518
1485.00,0.0519
1484.50,0.0520
1484.00,0.0521
1483.50,0.0522
1483.00,0.0523
1482.50,0.0524
1482.00,0.0524
1481.50,0.0525
1481.00,0.0525
1480.50,0.0526
1480.00,0.0526
1479.50,0.0526
1479.00,0.0527
1478.50,0.0527
1478.00,0.0528
1477.50,0.0528
1477.00,0.0528
1476.50,0.0529
1476.00,0.0529
1475.50,0.0529
1475.00,0.0530
1474.50,0.0531
1474.00,0.0532
1473.50,0.0534
1473.00,0.0535
1472.50,0.0536
1472.00,0.0537
1471.50,0.0539
1471.00,0.0541
1470.50,0.0543
1470.00,0.0545
1469.50,0.0547
1469.00,0.0550
1468.50,0.0553
1468.00,0.0556
1467.50,0.0559
1467.00,0.0562
1466.50,0.0564
1466.00,0.0567
1465.50,0.0571
1465.00,0.0575
1464.50,0.0580
1464.00,0.0584
1463.50,0.0588
1463.00,0.0592
1462.50,0.0596
1462.00,0.0601
1461.50,0.0606
1461.00,0.0611
1460.50,0.0616
1460.00,0.0621
1459.50,0.0626
1459.00,0.0632
1458.50,0.0636
1458.00,0.0641
1457.50,0.0647
1457.00,0.0655
1456.50,0.0662
1456.00,0.0666
1455.50,0.0670
1455.00,0.0674
1454.50,0.0679
1454.00,0.0685
1453.50,0.0691
1453.00,0.0698
1452.50,0.0704
1452.00,0.0711
1451.50,0.0719
1451.00,0.0726
1450.50,0.0733
1450.00,0.0740
1449.50,0.0747
1449.00,0.0754
1448.50,0.0760
1448.00,0.0766
1447.50,0.0772
1447.00,0.0776
1446.50,0.0779
1446.00,0.0781
1445.50,0.0783
1445.00,0.0783
1444.50,0.0782
1444.00,0.0780
1443.50,0.0777
1443.00,0.0774
1442.50,0.0769
1442.00,0.0764
1441.50,0.0758
1441.00,0.0753
1440.50,0.0747
1440.00,0.0741
1439.50,0.0735
1439.00,0.0731
1438.50,0.0726
1438.00,0.0722
1437.50,0.0719
1437.00,0.0715
1436.50,0.0708
1436.00,0.0703
1435.50,0.0701
1435.00,0.0700
1434.50,0.0699
1434.00,0.0698
1433.50,0.0698
1433.00,0.0699
1432.50,0.0700
1432.00,0.0701
1431.50,0.0703
1431.00,0.0706
1430.50,0.0709
1430.00,0.0713
1429.50,0.0719
1429.00,0.0725
1428.50,0.0731
1428.00,0.0738
1427.50,0.0746
1427.00,0.0755
1426.50,0.0765
1426.00,0.0776
1425.50,0.0788
1425.00,0.0801
1424.50,0.0816
1424.00,0.0833
1423.50,0.0852
1423.00,0.0871
1422.50,0.0889
1422.00,0.0909
1421.50,0.0930
1421.00,0.0950
1420.50,0.0969
1420.00,0.0994
1419.50,0.1028
1419.00,0.1062
1418.50,0.1087
1418.00,0.1106
1417.50,0.1126
1417.00,0.1147
1416.50,0.1167
1416.00,0.1185
1415.50,0.1202
1415.00,0.1217
1414.50,0.1229
1414.00,0.1240
1413.50,0.1248
1413.00,0.1255
1412.50,0.1259
1412.00,0.1261
1411.50,0.1262
1411.00,0.1261
1410.50,0.1258
1410.00,0.1255
1409.50,0.1250
1409.00,0.1243
1408.50,0.1235
1408.00,0.1227
1407.50,0.1217
1407.00,0.1207
1406.50,0.1198
1406.00,0.1188
1405.50,0.1177
1405.00,0.1165
1404.50,0.1154
1404.00,0.1145
1403.50,0.1137
1403.00,0.1130
1402.50,0.1123
1402.00,0.1116
1401.50,0.1109
1401.00,0.1101
1400.50,0.1093
1400.00,0.1084
1399.50,0.1071
1399.00,0.1055
1398.50,0.1039
1398.00,0.1023
1397.50,0.1006
1397.00,0.0990
1396.50,0.0972
1396.00,0.0955
1395.50,0.0935
1395.00,0.0914
1394.50,0.0891
1394.00,0.0871
1393.50,0.0854
1393.00,0.0840
1392.50,0.0827
1392.00,0.0813
1391.50,0.0801
1391.00,0.0788
1390.50,0.0777
1390.00,0.0767
1389.50,0.0758
1389.00,0.0750
1388.50,0.0743
1388.00,0.0736
1387.50,0.0728
1387.00,0.0721
1386.50,0.0715
1386.00,0.0710
1385.50,0.0706
1385.00,0.0702
1384.50,0.0698
1384.00,0.0695
1383.50,0.0691
1383.00,0.0687
1382.50,0.0684
1382.00,0.0680
1381.50,0.0677
1381.00,0.0673
1380.50,0.0671
1380.00,0.0668
1379.50,0.0666
1379.00,0.0663
1378.50,0.0661
1378.00,0.0659
1377.50,0.0658
1377.00,0.0656
1376.50,0.0655
1376.00,0.0655
1375.50,0.0654
1375.00,0.0653
1374.50,0.0652
1374.00,0.0652
1373.50,0.0651
1373.00,0.0651
1372.50,0.0651
1372.00,0.0651
1371.50,0.0650
1371.00,0.0648
1370.50,0.0647
1370.00,0.0645
1369.50,0.0644
1369.00,0.0642
1368.50,0.0640
1368.00,0.0638
1367.50,0.0637
1367.00,0.0636
1366.50,0.0635
1366.00,0.0634
1365.50,0.0633
1365.00,0.0633
1364.50,0.0632
1364.00,0.0632
1363.50,0.0632
1363.00,0.0631
1362.50,0.0630
1362.00,0.0629
1361.50,0.0629
1361.00,0.0629
1360.50,0.0629
1360.00,0.0629
1359.50,0.0629
1359.00,0.0629
1358.50,0.0628
1358.00,0.0628
1357.50,0.0628
1357.00,0.0628
1356.50,0.0628
1356.00,0.0628
1355.50,0.0628
1355.00,0.0628
1354.50,0.0628
1354.00,0.0629
1353.50,0.0629
1353.00,0.0629
1352.50,0.0629
1352.00,0.0630
1351.50,0.0630
1351.00,0.0630
1350.50,0.0631
1350.00,0.0632
1349.50,0.0632
1349.00,0.0632
1348.50,0.0633
1348.00,0.0634
1347.50,0.0634
1347.00,0.0635
1346.50,0.0635
1346.00,0.0636
1345.50,0.0637
1345.00,0.0637
1344.50,0.0638
1344.00,0.0638
1343.50,0.0638
1343.00,0.0639
1342.50,0.0639
1342.00,0.0639
1341.50,0.0640
1341.00,0.0640
1340.50,0.0640
1340.00,0.0640
1339.50,0.0640
1339.00,0.0640
1338.50,0.0641
1338.00,0.0641
1337.50,0.0642
1337.00,0.0643
1336.50,0.0643
1336.00,0.0644
1335.50,0.0645
1335.00,0.0647
1334.50,0.0648
1334.00,0.0650
1333.50,0.0651
1333.00,0.0653
1332.50,0.0654
1332.00,0.0656
1331.50,0.0657
1331.00,0.0659
1330.50,0.0661
1330.00,0.0663
1329.50,0.0665
1329.00,0.0666
1328.50,0.0668
1328.00,0.0671
1327.50,0.0673
1327.00,0.0675
1326.50,0.0677
1326.00,0.0680
1325.50,0.0682
1325.00,0.0684
1324.50,0.0687
1324.00,0.0690
1323.50,0.0692
1323.00,0.0695
1322.50,0.0698
1322.00,0.0701
1321.50,0.0704
1321.00,0.0707
1320.50,0.0710
1320.00,0.0713
1319.50,0.0716
1319.00,0.0719
1318.50,0.0722
1318.00,0.0726
1317.50,0.0730
1317.00,0.0733
1316.50,0.0737
1316.00,0.0740
1315.50,0.0744
1315.00,0.0748
1314.50,0.0751
1314.00,0.0755
1313.50,0.0759
1313.00,0.0763
1312.50,0.0767
1312.00,0.0772
1311.50,0.0776
1311.00,0.0780
1310.50,0.0784
1310.00,0.0788
1309.50,0.0793
1309.00,0.0797
1308.50,0.0802
1308.00,0.0807
1307.50,0.0811
1307.00,0.0816
1306.50,0.0821
1306.00,0.0826
1305.50,0.0831
1305.00,0.0836
1304.50,0.0841
1304.00,0.0847
1303.50,0.0852
1303.00,0.0858
1302.50,0.0864
1302.00,0.0870
1301.50,0.0876
1301.00,0.0882
1300.50,0.0888
1300.00,0.0895
1299.50,0.0902
1299.00,0.0909
1298.50,0.0916
1298.00,0.0924
1297.50,0.0932
1297.00,0.0940
1296.50,0.0948
1296.00,0.0957
1295.50,0.0966
1295.00,0.0975
1294.50,0.0984
1294.00,0.0994
1293.50,0.1004
1293.00,0.1015
1292.50,0.1025
1292.00,0.1037
1291.50,0.1048
1291.00,0.1060
1290.50,0.1072
1290.00,0.1085
1289.50,0.1098
1289.00,0.1111
1288.50,0.1126
1288.00,0.1140
1287.50,0.1156
1287.00,0.1172
1286.50,0.1189
1286.00,0.1207
1285.50,0.1225
1285.00,0.1245
1284.50,0.1266
1284.00,0.1289
1283.50,0.1312
1283.00,0.1337
1282.50,0.1364
1282.00,0.1393
1281.50,0.1424
1281.00,0.1458
1280.50,0.1494
1280.00,0.1533
1279.50,0.1576
1279.00,0.1622
1278.50,0.1672
1278.00,0.1727
1277.50,0.1787
1277.00,0.1853
1276.50,0.1926
1276.00,0.2006
1275.50,0.2094
1275.00,0.2193
1274.50,0.2302
1274.00,0.2425
1273.50,0.2561
1273.00,0.2715
1272.50,0.2889
1272.00,0.3089
1271.50,0.3318
1271.00,0.3579
1270.50,0.3877
1270.00,0.4219
1269.50,0.4610
1269.00,0.5057
1268.50,0.5559
1268.00,0.6116
1267.50,0.6725
1267.00,0.7380
1266.50,0.8066
1266.00,0.8762
1265.50,0.9452
1265.00,1.0117
1264.50,1.0729
1264.00,1.1266
1263.50,1.1723
1263.00,1.2093
1262.50,1.2356
1262.00,1.2505
1261.50,1.2562
1261.00,1.2536
1260.50,1.2419
1260.00,1.2218
1259.50,1.1960
1259.00,1.1657
1258.50,1.1301
1258.00,1.0904
1257.50,1.0489
1257.00,1.0068
1256.50,0.9642
1256.00,0.9219
1255.50,0.8812
1255.00,0.8423
1254.50,0.8043
1254.00,0.7666
1253.50,0.7293
1253.00,0.6919
1252.50,0.6535
1252.00,0.6143
1251.50,0.5749
1251.00,0.5360
1250.50,0.4982
1250.00,0.4621
1249.50,0.4287
1249.00,0.3981
1248.50,0.3704
1248.00,0.3456
1247.50,0.3235
1247.00,0.3041
1246.50,0.2870
1246.00,0.2720
1245.50,0.2588
1245.00,0.2473
1244.50,0.2371
1244.00,0.2280
1243.50,0.2200
1243.00,0.2129
1242.50,0.2066
1242.00,0.2009
1241.50,0.1959
1241.00,0.1914
1240.50,0.1874
1240.00,0.1838
1239.50,0.1806
1239.00,0.1777
1238.50,0.1752
1238.00,0.1729
1237.50,0.1708
1237.00,0.1691
1236.50,0.1675
1236.00,0.1660
1235.50,0.1648
1235.00,0.1638
1234.50,0.1629
1234.00,0.1622
1233.50,0.1616
1233.00,0.1611
1232.50,0.1608
1232.00,0.1606
1231.50,0.1605
1231.00,0.1605
1230.50,0.1606
1230.00,0.1608
1229.50,0.1612
1229.00,0.1616
1228.50,0.1621
1228.00,0.1627
1227.50,0.1635
1227.00,0.1643
1226.50,0.1652
1226.00,0.1661
1225.50,0.1672
1225.00,0.1684
1224.50,0.1696
1224.00,0.1709
1223.50,0.1722
1223.00,0.1737
1222.50,0.1752
1222.00,0.1767
1221.50,0.1784
1221.00,0.1801
1220.50,0.1819
1220.00,0.1838
1219.50,0.1857
1219.00,0.1877
1218.50,0.1897
1218.00,0.1918
1217.50,0.1939
1217.00,0.1961
1216.50,0.1983
1216.00,0.2006
1215.50,0.2028
1215.00,0.2052
1214.50,0.2076
1214.00,0.2099
1213.50,0.2123
1213.00,0.2148
1212.50,0.2172
1212.00,0.2196
1211.50,0.2220
1211.00,0.2245
1210.50,0.2270
1210.00,0.2294
1209.50,0.2318
1209.00,0.2343
1208.50,0.2367
1208.00,0.2390
1207.50,0.2414
1207.00,0.2438
1206.50,0.2462
1206.00,0.2485
1205.50,0.2508
1205.00,0.2530
1204.50,0.2553
1204.00,0.2574
1203.50,0.2595
1203.00,0.2617
1202.50,0.2637
1202.00,0.2657
1201.50,0.2677
1201.00,0.2697
1200.50,0.2716
1200.00,0.2734
1199.50,0.2753
1199.00,0.2771
1198.50,0.2788
1198.00,0.2805
1197.50,0.2822
1197.00,0.2838
1196.50,0.2854
1196.00,0.2869
1195.50,0.2884
1195.00,0.2899
1194.50,0.2914
1194.00,0.2928
1193.50,0.2941
1193.00,0.2955
1192.50,0.2968
1192.00,0.2980
1191.50,0.2992
1191.00,0.3005
1190.50,0.3017
1190.00,0.3028
1189.50,0.3039
1189.00,0.3051
1188.50,0.3062
1188.00,0.3072
1187.50,0.3083
1187.00,0.3093
1186.50,0.3104
1186.00,0.3113
1185.50,0.3123
1185.00,0.3133
1184.50,0.3142
1184.00,0.3151
1183.50,0.3161
1183.00,0.3171
1182.50,0.3180
1182.00,0.3189
1181.50,0.3198
1181.00,0.3208
1180.50,0.3218
1180.00,0.3227
1179.50,0.3237
1179.00,0.3247
1178.50,0.3257
1178.00,0.3267
1177.50,0.3277
1177.00,0.3288
1176.50,0.3299
1176.00,0.3310
1175.50,0.3321
1175.00,0.3332
1174.50,0.3344
1174.00,0.3355
1173.50,0.3366
1173.00,0.3378
1172.50,0.3390
1172.00,0.3400
1171.50,0.3412
1171.00,0.3423
1170.50,0.3434
1170.00,0.3445
1169.50,0.3456
1169.00,0.3468
1168.50,0.3480
1168.00,0.3492
1167.50,0.3505
1167.00,0.3518
1166.50,0.3532
1166.00,0.3545
1165.50,0.3559
1165.00,0.3574
1164.50,0.3589
1164.00,0.3603
1163.50,0.3619
1163.00,0.3635
1162.50,0.3652
1162.00,0.3668
1161.50,0.3686
1161.00,0.3704
1160.50,0.3722
1160.00,0.3740
1159.50,0.3759
1159.00,0.3780
1158.50,0.3800
1158.00,0.3820
1157.50,0.3841
1157.00,0.3864
1156.50,0.3886
1156.00,0.3909
1155.50,0.3932
1155.00,0.3957
1154.50,0.3982
1154.00,0.4007
1153.50,0.4034
1153.00,0.4061
1152.50,0.4089
1152.00,0.4117
1151.50,0.4146
1151.00,0.4177
1150.50,0.4209
1150.00,0.4240
1149.50,0.4273
1149.00,0.4307
1148.50,0.4342
1148.00,0.4377
1147.50,0.4414
1147.00,0.4453
1146.50,0.4492
1146.00,0.4531
1145.50,0.4572
1145.00,0.4616
1144.50,0.4659
1144.00,0.4704
1143.50,0.4750
1143.00,0.4799
1142.50,0.4849
1142.00,0.4899
1141.50,0.4951
1141.00,0.5005
1140.50,0.5061
1140.00,0.5117
1139.50,0.5175
1139.00,0.5236
1138.50,0.5298
1138.00,0.5361
1137.50,0.5425
1137.00,0.5493
1136.50,0.5561
1136.00,0.5630
1135.50,0.5703
1135.00,0.5779
1134.50,0.5856
1134.00,0.5935
1133.50,0.6017
1133.00,0.6104
1132.50,0.6192
1132.00,0.6283
1131.50,0.6377
1131.00,0.6475
1130.50,0.6576
1130.00,0.6678
1129.50,0.6785
1129.00,0.6896
1128.50,0.7010
1128.00,0.7125
1127.50,0.7245
1127.00,0.7370
1126.50,0.7498
1126.00,0.7626
1125.50,0.7759
1125.00,0.7899
1124.50,0.8040
1124.00,0.8182
1123.50,0.8330
1123.00,0.8483
1122.50,0.8638
1122.00,0.8792
1121.50,0.8952
1121.00,0.9118
1120.50,0.9284
1120.00,0.9450
1119.50,0.9620
1119.00,0.9796
1118.50,0.9971
1118.00,1.0144
1117.50,1.0322
1117.00,1.0507
1116.50,1.0691
1116.00,1.0870
1115.50,1.1052
1115.00,1.1240
1114.50,1.1425
1114.00,1.1605
1113.50,1.1788
1113.00,1.1977
1112.50,1.2161
1112.00,1.2337
1111.50,1.2516
1111.00,1.2704
1110.50,1.2884
1110.00,1.3055
1109.50,1.3228
1109.00,1.3409
1108.50,1.3580
1108.00,1.3737
1107.50,1.3899
1107.00,1.4071
1106.50,1.4235
1106.00,1.4385
1105.50,1.4538
1105.00,1.4699
1104.50,1.4845
1104.00,1.4973
1103.50,1.5107
1103.00,1.5253
1102.50,1.5387
1102.00,1.5500
1101.50,1.5619
1101.00,1.5749
1100.50,1.5864
1100.00,1.5959
1099.50,1.6061
1099.00,1.6176
1098.50,1.6273
1098.00,1.6345
1097.50,1.6423
1097.00,1.6517
1096.50,1.6593
1096.00,1.6645
1095.50,1.6709
1095.00,1.6791
1094.50,1.6854
1094.00,1.6885
1093.50,1.6924
1093.00,1.6981
1092.50,1.7020
1092.00,1.7031
1091.50,1.7053
1091.00,1.7094
1090.50,1.7116
1090.00,1.7112
1089.50,1.7122
1089.00,1.7153
1088.50,1.7164
1088.00,1.7144
1087.50,1.7135
1087.00,1.7147
1086.50,1.7142
1086.00,1.7111
1085.50,1.7093
1085.00,1.7094
1084.50,1.7075
1084.00,1.7028
1083.50,1.6996
1083.00,1.6986
1082.50,1.6961
1082.00,1.6912
1081.50,1.6873
1081.00,1.6854
1080.50,1.6817
1080.00,1.6758
1079.50,1.6711
1079.00,1.6685
1078.50,1.6646
1078.00,1.6586
1077.50,1.6536
1077.00,1.6504
1076.50,1.6456
1076.00,1.6387
1075.50,1.6329
1075.00,1.6291
1074.50,1.6241
1074.00,1.6174
1073.50,1.6119
1073.00,1.6081
1072.50,1.6030
1072.00,1.5960
1071.50,1.5901
1071.00,1.5859
1070.50,1.5807
1070.00,1.5738
1069.50,1.5679
1069.00,1.5635
1068.50,1.5580
1068.00,1.5510
1067.50,1.5449
1067.00,1.5405
1066.50,1.5354
1066.00,1.5290
1065.50,1.5235
1065.00,1.5191
1064.50,1.5135
1064.00,1.5063
1063.50,1.5001
1063.00,1.4956
1062.50,1.4905
1062.00,1.4842
1061.50,1.4786
1061.00,1.4740
1060.50,1.4685
1060.00,1.4618
1059.50,1.4561
1059.00,1.4519
1058.50,1.4470
1058.00,1.4411
1057.50,1.4360
1057.00,1.4319
1056.50,1.4273
1056.00,1.4216
1055.50,1.4169
1055.00,1.4133
1054.50,1.4091
1054.00,1.4037
1053.50,1.3988
1053.00,1.3951
1052.50,1.3913
1052.00,1.3867
1051.50,1.3831
1051.00,1.3807
1050.50,1.3776
1050.00,1.3733
1049.50,1.3698
1049.00,1.3676
1048.50,1.3650
1048.00,1.3616
1047.50,1.3591
1047.00,1.3577
1046.50,1.3559
1046.00,1.3533
1045.50,1.3517
1045.00,1.3513
1044.50,1.3505
1044.00,1.3489
1043.50,1.3480
1043.00,1.3480
1042.50,1.3477
1042.00,1.3467
1041.50,1.3465
1041.00,1.3473
1040.50,1.3477
1040.00,1.3475
1039.50,1.3480
1039.00,1.3496
1038.50,1.3507
1038.00,1.3511
1037.50,1.3522
1037.00,1.3544
1036.50,1.3562
1036.00,1.3572
1035.50,1.3587
1035.00,1.3612
1034.50,1.3633
1034.00,1.3647
1033.50,1.3669
1033.00,1.3701
1032.50,1.3728
1032.00,1.3746
1031.50,1.3771
1031.00,1.3806
1030.50,1.3838
1030.00,1.3860
1029.50,1.3888
1029.00,1.3924
1028.50,1.3954
1028.00,1.3974
1027.50,1.4001
1027.00,1.4038
1026.50,1.4070
1026.00,1.4093
1025.50,1.4121
1025.00,1.4153
1024.50,1.4176
1024.00,1.4185
1023.50,1.4198
1023.00,1.4219
1022.50,1.4232
1022.00,1.4230
1021.50,1.4228
1021.00,1.4231
1020.50,1.4223
1020.00,1.4198
1019.50,1.4171
1019.00,1.4145
1018.50,1.4103
1018.00,1.4042
1017.50,1.3974
1017.00,1.3903
1016.50,1.3813
1016.00,1.3702
1015.50,1.3585
1015.00,1.3464
1014.50,1.3324
1014.00,1.3163
1013.50,1.2993
1013.00,1.2817
1012.50,1.2627
1012.00,1.2422
1011.50,1.2213
1011.00,1.2004
1010.50,1.1786
1010.00,1.1560
1009.50,1.1335
1009.00,1.1115
1008.50,1.0894
1008.00,1.0672
1007.50,1.0456
1007.00,1.0247
1006.50,1.0042
1006.00,0.9839
1005.50,0.9644
1005.00,0.9458
1004.50,0.9276
1004.00,0.9100
1003.50,0.8933
1003.00,0.8776
1002.50,0.8624
1002.00,0.8477
1001.50,0.8338
1001.00,0.8208
1000.50,0.8084
1000.00,0.7965
999.50,0.7854
999.00,0.7751
998.50,0.7653
998.00,0.7559
997.50,0.7472
997.00,0.7392
996.50,0.7316
996.00,0.7243
995.50,0.7176
995.00,0.7114
994.50,0.7055
994.00,0.6998
993.50,0.6946
993.00,0.6899
992.50,0.6855
992.00,0.6812
991.50,0.6773
991.00,0.6737
990.50,0.6703
990.00,0.6671
989.50,0.6642
989.00,0.6616
988.50,0.6591
988.00,0.6568
987.50,0.6547
987.00,0.6529
986.50,0.6512
986.00,0.6496
985.50,0.6482
985.00,0.6471
984.50,0.6460
984.00,0.6450
983.50,0.6441
983.00,0.6435
982.50,0.6430
982.00,0.6424
981.50,0.6421
981.00,0.6420
980.50,0.6420
980.00,0.6419
979.50,0.6421
979.00,0.6425
978.50,0.6428
978.00,0.6432
977.50,0.6437
977.00,0.6443
976.50,0.6450
976.00,0.6457
975.50,0.6466
975.00,0.6477
974.50,0.6487
974.00,0.6497
973.50,0.6509
973.00,0.6522
972.50,0.6536
972.00,0.6549
971.50,0.6563
971.00,0.6579
970.50,0.6595
970.00,0.6611
969.50,0.6628
969.00,0.6647
968.50,0.6665
968.00,0.6683
967.50,0.6703
967.00,0.6723
966.50,0.6745
966.00,0.6765
965.50,0.6787
965.00,0.6811
964.50,0.6835
964.00,0.6859
963.50,0.6884
963.00,0.6910
962.50,0.6936
962.00,0.6962
961.50,0.6989
961.00,0.7017
960.50,0.7045
960.00,0.7071
959.50,0.7098
959.00,0.7127
958.50,0.7156
958.00,0.7184
957.50,0.7213
957.00,0.7243
956.50,0.7271
956.00,0.7298
955.50,0.7325
955.00,0.7352
954.50,0.7379
954.00,0.7404
953.50,0.7429
953.00,0.7454
952.50,0.7479
952.00,0.7502
951.50,0.7527
951.00,0.7554
950.50,0.7581
950.00,0.7607
949.50,0.7634
949.00,0.7664
948.50,0.7694
948.00,0.7722
947.50,0.7752
947.00,0.7785
946.50,0.7818
946.00,0.7850
945.50,0.7884
945.00,0.7919
944.50,0.7955
944.00,0.7988
943.50,0.8023
943.00,0.8061
942.50,0.8099
942.00,0.8136
941.50,0.8174
941.00,0.8214
940.50,0.8253
940.00,0.8291
939.50,0.8330
939.00,0.8372
938.50,0.8413
938.00,0.8453
937.50,0.8494
937.00,0.8538
936.50,0.8581
936.00,0.8624
935.50,0.8668
935.00,0.8714
934.50,0.8761
934.00,0.8806
933.50,0.8853
933.00,0.8903
932.50,0.8952
932.00,0.9000
931.50,0.9049
931.00,0.9100
930.50,0.9152
930.00,0.9201
929.50,0.9253
929.00,0.9307
928.50,0.9361
928.00,0.9414
927.50,0.9467
927.00,0.9521
926.50,0.9574
926.00,0.9626
925.50,0.9679
925.00,0.9735
924.50,0.9792
924.00,0.9846
923.50,0.9902
923.00,0.9961
922.50,1.0020
922.00,1.0079
921.50,1.0141
921.00,1.0208
920.50,1.0275
920.00,1.0338
919.50,1.0404
919.00,1.0474
918.50,1.0544
918.00,1.0611
917.50,1.0679
917.00,1.0750
916.50,1.0818
916.00,1.0884
915.50,1.0950
915.00,1.1018
914.50,1.1083
914.00,1.1143
913.50,1.1202
913.00,1.1264
912.50,1.1322
912.00,1.1376
911.50,1.1429
911.00,1.1485
910.50,1.1537
910.00,1.1585
909.50,1.1632
909.00,1.1684
908.50,1.1733
908.00,1.1780
907.50,1.1828
907.00,1.1881
906.50,1.1933
906.00,1.1979
905.50,1.2028
905.00,1.2083
904.50,1.2138
904.00,1.2191
903.50,1.2249
903.00,1.2315
902.50,1.2381
902.00,1.2444
901.50,1.2510
901.00,1.2583
900.50,1.2654
900.00,1.2721
899.50,1.2791
899.00,1.2867
898.50,1.2941
898.00,1.3010
897.50,1.3082
897.00,1.3163
896.50,1.3244
896.00,1.3320
895.50,1.3398
895.00,1.3481
894.50,1.3561
894.00,1.3636
893.50,1.3714
893.00,1.3800
892.50,1.3883
892.00,1.3960
891.50,1.4039
891.00,1.4126
890.50,1.4211
890.00,1.4289
889.50,1.4373
889.00,1.4469
888.50,1.4565
888.00,1.4652
887.50,1.4743
887.00,1.4844
886.50,1.4945
886.00,1.5039
885.50,1.5141
885.00,1.5255
884.50,1.5368
884.00,1.5473
883.50,1.5585
883.00,1.5710
882.50,1.5833
882.00,1.5946
881.50,1.6066
881.00,1.6200
880.50,1.6331
880.00,1.6448
879.50,1.6569
879.00,1.6707
878.50,1.6843
878.00,1.6969
877.50,1.7106
877.00,1.7263
876.50,1.7415
876.00,1.7549
875.50,1.7689
875.00,1.7846
874.50,1.7993
874.00,1.8123
873.50,1.8271
873.00,1.8451
872.50,1.8624
872.00,1.8765
871.50,1.8906
871.00,1.9066
870.50,1.9212
870.00,1.9325
869.50,1.9438
869.00,1.9570
868.50,1.9682
868.00,1.9756
867.50,1.9834
867.00,1.9936
866.50,2.0019
866.00,2.0058
865.50,2.0094
865.00,2.0152
864.50,2.0198
864.00,2.0217
863.50,2.0250
863.00,2.0311
862.50,2.0356
862.00,2.0368
861.50,2.0396
861.00,2.0461
860.50,2.0515
860.00,2.0532
859.50,2.0556
859.00,2.0612
858.50,2.0659
858.00,2.0675
857.50,2.0706
857.00,2.0776
856.50,2.0845
856.00,2.0890
855.50,2.0956
855.00,2.1059
854.50,2.1149
854.00,2.1208
853.50,2.1291
853.00,2.1424
852.50,2.1551
852.00,2.1633
851.50,2.1718
851.00,2.1829
850.50,2.1913
850.00,2.1964
849.50,2.2062
849.00,2.2234
848.50,2.2385
848.00,2.2451
847.50,2.2503
847.00,2.2600
846.50,2.2682
846.00,2.2698
845.50,2.2713
845.00,2.2782
844.50,2.2852
844.00,2.2883
843.50,2.2925
843.00,2.3002
842.50,2.3042
842.00,2.3022
841.50,2.3028
841.00,2.3089
840.50,2.3117
840.00,2.3075
839.50,2.3054
839.00,2.3103
838.50,2.3143
838.00,2.3121
837.50,2.3115
837.00,2.3173
836.50,2.3228
836.00,2.3237
835.50,2.3272
835.00,2.3374
834.50,2.3465
834.00,2.3497
833.50,2.3547
833.00,2.3653
832.50,2.3728
832.00,2.3733
831.50,2.3768
831.00,2.3881
830.50,2.3958
830.00,2.3937
829.50,2.3940
829.00,2.4041
828.50,2.4123
828.00,2.4102
827.50,2.4097
827.00,2.4186
826.50,2.4256
826.00,2.4246
825.50,2.4297
825.00,2.4485
824.50,2.4652
824.00,2.4684
823.50,2.4704
823.00,2.4791
822.50,2.4817
822.00,2.4735
821.50,2.4720
821.00,2.4842
820.50,2.4931
820.00,2.4878
819.50,2.4820
819.00,2.4866
818.50,2.4927
818.00,2.4931
817.50,2.4971
817.00,2.5079
816.50,2.5122
816.00,2.5048
815.50,2.5004
815.00,2.5064
814.50,2.5099
814.00,2.5038
813.50,2.5007
813.00,2.5072
812.50,2.5114
812.00,2.5055
811.50,2.5010
811.00,2.5047
810.50,2.5054
810.00,2.4975
809.50,2.4943
809.00,2.5035
808.50,2.5141
808.00,2.5174
807.50,2.5206
807.00,2.5282
806.50,2.5298
806.00,2.5218
805.50,2.5178
805.00,2.5238
804.50,2.5266
804.00,2.5194
803.50,2.5148
803.00,2.5189
802.50,2.5201
802.00,2.5121
801.50,2.5075
801.00,2.5142
800.50,2.5218
800.00,2.5220
799.50,2.5226
799.00,2.5288
798.50,2.5307
798.00,2.5245
797.50,2.5217
797.00,2.5271
796.50,2.5290
796.00,2.5222
795.50,2.5187
795.00,2.5250
794.50,2.5295
794.00,2.5255
793.50,2.5244
793.00,2.5317
792.50,2.5350
792.00,2.5282
791.50,2.5233
791.00,2.5272
790.50,2.5288
790.00,2.5216
789.50,2.5166
789.00,2.5200
788.50,2.5225
788.00,2.5186
787.50,2.5186
787.00,2.5274
786.50,2.5324
786.00,2.5262
785.50,2.5207
785.00,2.5235
784.50,2.5253
784.00,2.5214
783.50,2.5217
783.00,2.5295
782.50,2.5326
782.00,2.5256
781.50,2.5213
781.00,2.5269
780.50,2.5311
780.00,2.5270
779.50,2.5255
779.00,2.5332
778.50,2.5394
778.00,2.5374
777.50,2.5372
777.00,2.5441
776.50,2.5463
776.00,2.5377
775.50,2.5305
775.00,2.5321
774.50,2.5327
774.00,2.5263
773.50,2.5235
773.00,2.5308
772.50,2.5368
772.00,2.5341
771.50,2.5325
771.00,2.5378
770.50,2.5404
770.00,2.5347
769.50,2.5320
769.00,2.5388
768.50,2.5439
768.00,2.5398
767.50,2.5374
767.00,2.5439
766.50,2.5485
766.00,2.5430
765.50,2.5364
765.00,2.5364
764.50,2.5366
764.00,2.5326
763.50,2.5335
763.00,2.5421
762.50,2.5461
762.00,2.5385
761.50,2.5307
761.00,2.5326
760.50,2.5378
760.00,2.5389
759.50,2.5409
759.00,2.5458
758.50,2.5439
758.00,2.5327
757.50,2.5251
757.00,2.5286
756.50,2.5345
756.00,2.5368
755.50,2.5414
755.00,2.5493
754.50,2.5492
754.00,2.5385
753.50,2.5324
753.00,2.5391
752.50,2.5468
752.00,2.5460
751.50,2.5450
751.00,2.5514
750.50,2.5572
750.00,2.5556
749.50,2.5547
749.00,2.5595
748.50,2.5597
748.00,2.5502
747.50,2.5433
747.00,2.5472
746.50,2.5531
746.00,2.5527
745.50,2.5519
745.00,2.5550
744.50,2.5539
744.00,2.5459
743.50,2.5428
743.00,2.5515
742.50,2.5610
742.00,2.5609
741.50,2.5578
741.00,2.5582
740.50,2.5545
740.00,2.5429
739.50,2.5338
739.00,2.5346
738.50,2.5372
738.00,2.5355
737.50,2.5372
737.00,2.5470
736.50,2.5551
736.00,2.5544
735.50,2.5531
735.00,2.5572
734.50,2.5586
734.00,2.5519
733.50,2.5476
733.00,2.5531
732.50,2.5593
732.00,2.5590
731.50,2.5598
731.00,2.5673
730.50,2.5719
730.00,2.5668
729.50,2.5613
729.00,2.5627
728.50,2.5628
728.00,2.5551
727.50,2.5478
727.00,2.5484
726.50,2.5503
726.00,2.5479
725.50,2.5477
725.00,2.5536
724.50,2.5578
724.00,2.5556
723.50,2.5557
723.00,2.5627
722.50,2.5667
722.00,2.5602
721.50,2.5525
721.00,2.5524
720.50,2.5545
720.00,2.5530
719.50,2.5538
719.00,2.5608
718.50,2.5664
718.00,2.5648
717.50,2.5618
717.00,2.5627
716.50,2.5618
716.00,2.5567
715.50,2.5568
715.00,2.5660
714.50,2.5725
714.00,2.5669
713.50,2.5585
713.00,2.5567
712.50,2.5567
712.00,2.5534
711.50,2.5537
711.00,2.5630
710.50,2.5722
710.00,2.5717
709.50,2.5673
709.00,2.5655
708.50,2.5616
708.00,2.5524
707.50,2.5462
707.00,2.5495
706.50,2.5556
706.00,2.5561
705.50,2.5548
705.00,2.5585
704.50,2.5640
704.00,2.5660
703.50,2.5684
703.00,2.5747
702.50,2.5785
702.00,2.5754
701.50,2.5718
701.00,2.5728
700.50,2.5715
700.00,2.5645
699.50,2.5607
699.00,2.5647
698.50,2.5678
698.00,2.5628
697.50,2.5583
697.00,2.5634
696.50,2.5716
696.00,2.5734
695.50,2.5696
695.00,2.5645
694.50,2.5569
694.00,2.5485
693.50,2.5490
693.00,2.5610
692.50,2.5728
692.00,2.5752
691.50,2.5748
691.00,2.5776
690.50,2.5779
690.00,2.5739
689.50,2.5743
689.00,2.5840
688.50,2.5921
688.00,2.5889
687.50,2.5843
687.00,2.5886
686.50,2.5933
686.00,2.5894
685.50,2.5824
685.00,2.5791
684.50,2.5776
684.00,2.5732
683.50,2.5701
683.00,2.5741
682.50,2.5793
682.00,2.5797
681.50,2.5812
681.00,2.5868
680.50,2.5872
680.00,2.5786
679.50,2.5707
679.00,2.5714
678.50,2.5744
678.00,2.5727
677.50,2.5716
677.00,2.5751
676.50,2.5768
676.00,2.5726
675.50,2.5701
675.00,2.5763
674.50,2.5859
674.00,2.5917
673.50,2.5964
673.00,2.6057
672.50,2.6157
672.00,2.6186
671.50,2.6149
671.00,2.6103
670.50,2.6023
670.00,2.5909
669.50,2.5838
669.00,2.5919
668.50,2.6178
668.00,2.6378
667.50,2.6440
667.00,2.6451
666.50,2.6344
666.00,2.6169
665.50,2.6061
665.00,2.6064
664.50,2.6080
664.00,2.6013
663.50,2.5909
663.00,2.5856
662.50,2.5853
662.00,2.5853
661.50,2.5870
661.00,2.5935
660.50,2.6017
660.00,2.6058
659.50,2.6070
659.00,2.6111
658.50,2.6152
658.00,2.6158
657.50,2.6171
657.00,2.6213
656.50,2.6229
656.00,2.6165
655.50,2.6061
655.00,2.5989
654.50,2.5960
654.00,2.5960
653.50,2.6019
653.00,2.6146
652.50,2.6243
652.00,2.6226
651.50,2.6139
651.00,2.6057
650.50,2.5974
650.00,2.5881
649.50,2.5829
649.00,2.5849
648.50,2.5884
648.00,2.5906
647.50,2.5972
647.00,2.6115
646.50,2.6242
646.00,2.6234
645.50,2.6111
645.00,2.5995
644.50,2.5949
644.00,2.5958
643.50,2.5998
643.00,2.6041
642.50,2.6025
642.00,2.5957
641.50,2.5921
641.00,2.5958
640.50,2.6023
640.00,2.6056
639.50,2.6048
639.00,2.6043
638.50,2.6051
638.00,2.6092
637.50,2.6215
637.00,2.6413
636.50,2.6586
636.00,2.6634
635.50,2.6546
635.00,2.6403
634.50,2.6255
634.00,2.6148
633.50,2.6131
633.00,2.6198
632.50,2.6265
632.00,2.6251
631.50,2.6198
631.00,2.6216
630.50,2.6297
630.00,2.6344
629.50,2.6332
629.00,2.6297
628.50,2.6249
628.00,2.6189
627.50,2.6164
627.00,2.6204
626.50,2.6280
626.00,2.6333
625.50,2.6345
625.00,2.6357
624.50,2.6334
624.00,2.6216
623.50,2.6060
623.00,2.5974
622.50,2.5984
622.00,2.6037
621.50,2.6064
621.00,2.6057
620.50,2.6057
620.00,2.6080
619.50,2.6118
619.00,2.6173
618.50,2.6217
618.00,2.6233
617.50,2.6254
617.00,2.6299
616.50,2.6348
616.00,2.6352
615.50,2.6290
615.00,2.6210
614.50,2.6180
614.00,2.6198
613.50,2.6194
613.00,2.6139
612.50,2.6094
612.00,2.6139
611.50,2.6269
611.00,2.6396
610.50,2.6464
610.00,2.6523
609.50,2.6645
609.00,2.6806
608.50,2.6891
608.00,2.6847
607.50,2.6752
607.00,2.6703
606.50,2.6669
606.00,2.6582
605.50,2.6448
605.00,2.6392
604.50,2.6468
604.00,2.6543
603.50,2.6464
603.00,2.6265
602.50,2.6131
602.00,2.6210
601.50,2.6480
601.00,2.6793
600.50,2.6939
600.00,2.6824
599.50,2.6615
599.00,2.6465
598.50,2.6375
598.00,2.6304
597.50,2.6232
597.00,2.6168
596.50,2.6147
596.00,2.6185
595.50,2.6247
595.00,2.6319
594.50,2.6403
594.00,2.6485
593.50,2.6487
593.00,2.6400
592.50,2.6329
592.00,2.6384
591.50,2.6534
591.00,2.6618
590.50,2.6563
590.00,2.6449
589.50,2.6364
589.00,2.6351
588.50,2.6362
588.00,2.6307
587.50,2.6208
587.00,2.6186
586.50,2.6315
586.00,2.6549
585.50,2.6729
585.00,2.6787
584.50,2.6798
584.00,2.6850
583.50,2.6881
583.00,2.6776
582.50,2.6560
582.00,2.6379
581.50,2.6347
581.00,2.6482
580.50,2.6680
580.00,2.6774
579.50,2.6716
579.00,2.6649
578.50,2.6668
578.00,2.6727
577.50,2.6700
577.00,2.6585
576.50,2.6507
576.00,2.6519
575.50,2.6582
575.00,2.6663
574.50,2.6749
574.00,2.6808
573.50,2.6812
573.00,2.6794
572.50,2.6827
572.00,2.6882
571.50,2.6849
571.00,2.6734
570.50,2.6646
570.00,2.6637
569.50,2.6637
569.00,2.6609
568.50,2.6579
568.00,2.6581
567.50,2.6581
567.00,2.6551
566.50,2.6573
566.00,2.6703
565.50,2.6849
565.00,2.6920
564.50,2.6931
564.00,2.6915
563.50,2.6863
563.00,2.6824
562.50,2.6858
562.00,2.6877
561.50,2.6730
561.00,2.6496
560.50,2.6407
560.00,2.6527
559.50,2.6712
559.00,2.6831
558.50,2.6931
558.00,2.7069
557.50,2.7149
557.00,2.7127
556.50,2.7123
556.00,2.7186
555.50,2.7185
555.00,2.7053
554.50,2.6877
554.00,2.6788
553.50,2.6724
553.00,2.6640
552.50,2.6639
552.00,2.6741
551.50,2.6779
551.00,2.6651
550.50,2.6544
550.00,2.6620
549.50,2.6742
549.00,2.6770
548.50,2.6765
548.00,2.6803
547.50,2.6803
547.00,2.6712
546.50,2.6656
546.00,2.6730
545.50,2.6846
545.00,2.6893
544.50,2.6944
544.00,2.7049
543.50,2.7098
543.00,2.7056
542.50,2.6986
542.00,2.6940
541.50,2.6862
541.00,2.6729
540.50,2.6650
540.00,2.6684
539.50,2.6681
539.00,2.6583
538.50,2.6571
538.00,2.6718
537.50,2.6842
537.00,2.6849
536.50,2.6911
536.00,2.7115
535.50,2.7262
535.00,2.7177
534.50,2.7011
534.00,2.6996
533.50,2.7042
533.00,2.6977
532.50,2.6914
532.00,2.6977
531.50,2.7066
531.00,2.7053
530.50,2.6989
530.00,2.6965
529.50,2.6884
529.00,2.6727
528.50,2.6728
528.00,2.6959
527.50,2.7148
527.00,2.7130
526.50,2.7030
526.00,2.6993
525.50,2.6925
525.00,2.6783
524.50,2.6837
524.00,2.7200
523.50,2.7583
523.00,2.7625
522.50,2.7399
522.00,2.7173
521.50,2.6961
521.00,2.6754
520.50,2.6703
520.00,2.6915
519.50,2.7121
519.00,2.7109
518.50,2.7111
518.00,2.7320
517.50,2.7509
517.00,2.7357
516.50,2.7095
516.00,2.7027
515.50,2.7041
515.00,2.6984
514.50,2.6955
514.00,2.7103
513.50,2.7259
513.00,2.7193
512.50,2.7093
512.00,2.7098
511.50,2.6936
511.00,2.6578
510.50,2.6352
510.00,2.6386
509.50,2.6441
509.00,2.6340
508.50,2.6297
508.00,2.6523
507.50,2.6837
507.00,2.6887
506.50,2.6811
506.00,2.6931
505.50,2.7071
505.00,2.6968
504.50,2.6833
504.00,2.6973
503.50,2.7276
503.00,2.7545
502.50,2.7809
502.00,2.8010
501.50,2.7859
501.00,2.7465
500.50,2.7260
500.00,2.7372
499.50,2.7449
499.00,2.7311
498.50,2.7176
498.00,2.7238
497.50,2.7237
497.00,2.6914
496.50,2.6637
496.00,2.6711
495.50,2.6943
495.00,2.7110
494.50,2.7443
494.00,2.8019
493.50,2.8187
493.00,2.7743
492.50,2.7452
492.00,2.7722
491.50,2.8006
491.00,2.7748
490.50,2.7314
490.00,2.7127
489.50,2.7032
489.00,2.6793
488.50,2.6656
488.00,2.6940
487.50,2.7375
487.00,2.7447
486.50,2.7344
486.00,2.7402
485.50,2.7378
485.00,2.7164
484.50,2.7129
484.00,2.7375
483.50,2.7304
483.00,2.6768
482.50,2.6520
482.00,2.6928
481.50,2.7386
481.00,2.7188
480.50,2.6843
480.00,2.6893
479.50,2.7010
479.00,2.6770
478.50,2.6617
478.00,2.6862
477.50,2.7053
477.00,2.6945
476.50,2.7056
476.00,2.7910
475.50,2.9016
475.00,2.9271
474.50,2.9090
474.00,2.9028
473.50,2.8589
473.00,2.7753
472.50,2.7110
472.00,2.7051
471.50,2.7000
471.00,2.6551
470.50,2.6206
470.00,2.6395
469.50,2.6782
469.00,2.6788
468.50,2.6636
468.00,2.6707
467.50,2.6759
467.00,2.6504
466.50,2.6437
466.00,2.6991
465.50,2.7471
465.00,2.7336
464.50,2.7506
464.00,2.8613
463.50,2.9870
463.00,2.9473
462.50,2.8595
462.00,2.8471
461.50,2.8125
461.00,2.7105
460.50,2.6561
460.00,2.6914
459.50,2.7359
459.00,2.7188
458.50,2.7145
458.00,2.8108
457.50,2.8750
457.00,2.7455
456.50,2.6500
456.00,2.6664
455.50,2.7342
455.00,2.7665
454.50,2.7650
454.00,2.8056
453.50,2.8466
453.00,2.7945
452.50,2.7520
452.00,2.8119
451.50,2.8958
451.00,2.8681
450.50,2.8259
450.00,2.8684
449.50,2.8865
449.00,2.8065
448.50,2.7751
448.00,2.8931
447.50,3.0717
447.00,3.0138
446.50,2.8728
446.00,2.8413
445.50,2.8347
445.00,2.7607
444.50,2.7122
444.00,2.7653
443.50,2.8464
443.00,2.8207
442.50,2.7615
442.00,2.7609
441.50,2.7240
441.00,2.6147
440.50,2.5546
440.00,2.5770
439.50,2.6020
439.00,2.5601
438.50,2.5367
438.00,2.6119
437.50,2.7297
437.00,2.7575
436.50,2.7575
436.00,2.8435
435.50,2.8925
435.00,2.7609
434.50,2.6498
434.00,2.6531
433.50,2.6905
433.00,2.6463
432.50,2.5961
432.00,2.6637
431.50,2.8111
431.00,2.8353
430.50,2.7605
430.00,2.7482
429.50,2.7588
429.00,2.7120
428.50,2.6870
428.00,2.7441
427.50,2.7580
427.00,2.6399
426.50,2.5663
426.00,2.6319
425.50,2.7183
425.00,2.6186
424.50,2.5070
424.00,2.5450
423.50,2.7136
423.00,2.8069
422.50,2.8168
422.00,2.9823
421.50,3.2720
421.00,3.1550
420.50,2.9375
420.00,2.8382
419.50,2.7477
419.00,2.6364
418.50,2.6562
418.00,2.9574
417.50,3.3237
417.00,3.0804
416.50,2.9405
416.00,2.9541
415.50,2.9081
415.00,2.7537
414.50,2.6021
414.00,2.6076
413.50,2.7147
413.00,2.7478
412.50,2.7597
412.00,2.9959
411.50,3.3639
411.00,3.0186
410.50,2.7671
410.00,2.6793
409.50,2.7032
409.00,2.6813
408.50,2.5852
408.00,2.6307
407.50,2.7164
407.00,2.6164
406.50,2.5253
406.00,2.5767
405.50,2.6363
405.00,2.5250
404.50,2.4268
404.00,2.4671
403.50,2.5845
403.00,2.8224
402.50,3.2724
402.00,3.2219
401.50,2.8626
401.00,2.6488
400.50,2.6260
400.00,2.6437
