Created as New Dataset,Sample 010 By irlear Date Monday, July 06 2009
cm-1,A
4000.00,0.0393
3999.50,0.0393
3999.00,0.0393
3998.50,0.0393
3998.00,0.0393
3997.50,0.0393
3997.00,0.0393
3996.50,0.0393
3996.00,0.0393
3995.50,0.0393
3995.00,0.0393
3994.50,0.0393
3994.00,0.0393
3993.50,0.0393
3993.00,0.0393
3992.50,0.0393
3992.00,0.0393
3991.50,0.0393
3991.00,0.0393
3990.50,0.0392
3990.00,0.0392
3989.50,0.0392
3989.00,0.0392
3988.50,0.0392
3988.00,0.0392
3987.50,0.0392
3987.00,0.0392
3986.50,0.0392
3986.00,0.0391
3985.50,0.0391
3985.00,0.0391
3984.50,0.0391
3984.00,0.0391
3983.50,0.0391
3983.00,0.0391
3982.50,0.0391
3982.00,0.0391
3981.50,0.0391
3981.00,0.0391
3980.50,0.0391
3980.00,0.0391
3979.50,0.0391
3979.00,0.0391
3978.50,0.0391
3978.00,0.0391
3977.50,0.0391
3977.00,0.0391
3976.50,0.0390
3976.00,0.0390
3975.50,0.0390
3975.00,0.0390
3974.50,0.0390
3974.00,0.0390
3973.50,0.0390
3973.00,0.0390
3972.50,0.0390
3972.00,0.0390
3971.50,0.0390
3971.00,0.0390
3970.50,0.0390
3970.00,0.0390
3969.50,0.0390
3969.00,0.0389
3968.50,0.0389
3968.00,0.0389
3967.50,0.0389
3967.00,0.0389
3966.50,0.0390
3966.00,0.0390
3965.50,0.0390
3965.00,0.0390
3964.50,0.0389
3964.00,0.0389
3963.50,0.0389
3963.00,0.0389
3962.50,0.0389
3962.00,0.0389
3961.50,0.0389
3961.00,0.0388
3960.50,0.0388
3960.00,0.0389
3959.50,0.0389
3959.00,0.0389
3958.50,0.0389
3958.00,0.0389
3957.50,0.0389
3957.00,0.0388
3956.50,0.0388
3956.00,0.0388
3955.50,0.0388
3955.00,0.0388
3954.50,0.0388
3954.00,0.0388
3953.50,0.0388
3953.00,0.0388
3952.50,0.0388
3952.00,0.0388
3951.50,0.0388
3951.00,0.0388
3950.50,0.0388
3950.00,0.0388
3949.50,0.0388
3949.00,0.0387
3948.50,0.0387
3948.00,0.0387
3947.50,0.0387
3947.00,0.0387
3946.50,0.0387
3946.00,0.0387
3945.50,0.0387
3945.00,0.0388
3944.50,0.0388
3944.00,0.0387
3943.50,0.0387
3943.00,0.0387
3942.50,0.0386
3942.00,0.0386
3941.50,0.0386
3941.00,0.0387
3940.50,0.0387
3940.00,0.0388
3939.50,0.0388
3939.00,0.0387
3938.50,0.0387
3938.00,0.0387
3937.50,0.0387
3937.00,0.0387
3936.50,0.0387
3936.00,0.0387
3935.50,0.0387
3935.00,0.0387
3934.50,0.0387
3934.00,0.0387
3933.50,0.0386
3933.00,0.0386
3932.50,0.0385
3932.00,0.0385
3931.50,0.0385
3931.00,0.0385
3930.50,0.0385
3930.00,0.0386
3929.50,0.0386
3929.00,0.0386
3928.50,0.0386
3928.00,0.0386
3927.50,0.0386
3927.00,0.0387
3926.50,0.0386
3926.00,0.0386
3925.50,0.0386
3925.00,0.0386
3924.50,0.0385
3924.00,0.0385
3923.50,0.0385
3923.00,0.0385
3922.50,0.0386
3922.00,0.0386
3921.50,0.0386
3921.00,0.0386
3920.50,0.0386
3920.00,0.0386
3919.50,0.0386
3919.00,0.0386
3918.50,0.0386
3918.00,0.0385
3917.50,0.0386
3917.00,0.0386
3916.50,0.0385
3916.00,0.0385
3915.50,0.0385
3915.00,0.0386
3914.50,0.0386
3914.00,0.0387
3913.50,0.0387
3913.00,0.0387
3912.50,0.0387
3912.00,0.0387
3911.50,0.0387
3911.00,0.0387
3910.50,0.0387
3910.00,0.0387
3909.50,0.0387
3909.00,0.0387
3908.50,0.0387
3908.00,0.0388
3907.50,0.0387
3907.00,0.0387
3906.50,0.0387
3906.00,0.0386
3905.50,0.0385
3905.00,0.0384
3904.50,0.0384
3904.00,0.0385
3903.50,0.0387
3903.00,0.0386
3902.50,0.0384
3902.00,0.0384
3901.50,0.0386
3901.00,0.0386
3900.50,0.0385
3900.00,0.0383
3899.50,0.0384
3899.00,0.0386
3898.50,0.0386
3898.00,0.0385
3897.50,0.0386
3897.00,0.0387
3896.50,0.0388
3896.00,0.0388
3895.50,0.0388
3895.00,0.0388
3894.50,0.0388
3894.00,0.0388
3893.50,0.0387
3893.00,0.0387
3892.50,0.0386
3892.00,0.0385
3891.50,0.0385
3891.00,0.0386
3890.50,0.0387
3890.00,0.0387
3889.50,0.0387
3889.00,0.0388
3888.50,0.0388
3888.00,0.0389
3887.50,0.0388
3887.00,0.0387
3886.50,0.0385
3886.00,0.0385
3885.50,0.0385
3885.00,0.0386
3884.50,0.0386
3884.00,0.0386
3883.50,0.0386
3883.00,0.0387
3882.50,0.0388
3882.00,0.0387
3881.50,0.0386
3881.00,0.0386
3880.50,0.0386
3880.00,0.0386
3879.50,0.0386
3879.00,0.0386
3878.50,0.0387
3878.00,0.0388
3877.50,0.0389
3877.00,0.0389
3876.50,0.0389
3876.00,0.0389
3875.50,0.0388
3875.00,0.0388
3874.50,0.0387
3874.00,0.0387
3873.50,0.0387
3873.00,0.0387
3872.50,0.0387
3872.00,0.0387
3871.50,0.0388
3871.00,0.0388
3870.50,0.0388
3870.00,0.0388
3869.50,0.0388
3869.00,0.0388
3868.50,0.0387
3868.00,0.0387
3867.50,0.0388
3867.00,0.0389
3866.50,0.0389
3866.00,0.0388
3865.50,0.0388
3865.00,0.0388
3864.50,0.0389
3864.00,0.0388
3863.50,0.0388
3863.00,0.0387
3862.50,0.0387
3862.00,0.0388
3861.50,0.0389
3861.00,0.0390
3860.50,0.0390
3860.00,0.0390
3859.50,0.0391
3859.00,0.0392
3858.50,0.0392
3858.00,0.0391
3857.50,0.0391
3857.00,0.0391
3856.50,0.0391
3856.00,0.0390
3855.50,0.0387
3855.00,0.0386
3854.50,0.0391
3854.00,0.0397
3853.50,0.0397
3853.00,0.0392
3852.50,0.0389
3852.00,0.0390
3851.50,0.0393
3851.00,0.0395
3850.50,0.0394
3850.00,0.0394
3849.50,0.0394
3849.00,0.0395
3848.50,0.0396
3848.00,0.0396
3847.50,0.0396
3847.00,0.0396
3846.50,0.0396
3846.00,0.0397
3845.50,0.0397
3845.00,0.0398
3844.50,0.0398
3844.00,0.0398
3843.50,0.0398
3843.00,0.0399
3842.50,0.0399
3842.00,0.0399
3841.50,0.0399
3841.00,0.0400
3840.50,0.0400
3840.00,0.0400
3839.50,0.0399
3839.00,0.0398
3838.50,0.0397
3838.00,0.0399
3837.50,0.0402
3837.00,0.0403
3836.50,0.0402
3836.00,0.0400
3835.50,0.0400
3835.00,0.0402
3834.50,0.0404
3834.00,0.0405
3833.50,0.0404
3833.00,0.0404
3832.50,0.0404
3832.00,0.0405
3831.50,0.0406
3831.00,0.0406
3830.50,0.0406
3830.00,0.0406
3829.50,0.0406
3829.00,0.0407
3828.50,0.0408
3828.00,0.0407
3827.50,0.0407
3827.00,0.0406
3826.50,0.0407
3826.00,0.0407
3825.50,0.0407
3825.00,0.0407
3824.50,0.0407
3824.00,0.0408
3823.50,0.0408
3823.00,0.0407
3822.50,0.0407
3822.00,0.0407
3821.50,0.0408
3821.00,0.0406
3820.50,0.0405
3820.00,0.0405
3819.50,0.0406
3819.00,0.0406
3818.50,0.0408
3818.00,0.0408
3817.50,0.0408
3817.00,0.0407
3816.50,0.0407
3816.00,0.0409
3815.50,0.0410
3815.00,0.0410
3814.50,0.0409
3814.00,0.0409
3813.50,0.0410
3813.00,0.0411
3812.50,0.0411
3812.00,0.0412
3811.50,0.0412
3811.00,0.0412
3810.50,0.0412
3810.00,0.0412
3809.50,0.0412
3809.00,0.0412
3808.50,0.0412
3808.00,0.0411
3807.50,0.0411
3807.00,0.0413
3806.50,0.0414
3806.00,0.0414
3805.50,0.0413
3805.00,0.0413
3804.50,0.0414
3804.00,0.0415
3803.50,0.0415
3803.00,0.0415
3802.50,0.0414
3802.00,0.0413
3801.50,0.0413
3801.00,0.0415
3800.50,0.0416
3800.00,0.0416
3799.50,0.0415
3799.00,0.0416
3798.50,0.0417
3798.00,0.0418
3797.50,0.0417
3797.00,0.0417
3796.50,0.0418
3796.00,0.0418
3795.50,0.0419
3795.00,0.0419
3794.50,0.0419
3794.00,0.0420
3793.50,0.0421
3793.00,0.0422
3792.50,0.0422
3792.00,0.0423
3791.50,0.0423
3791.00,0.0424
3790.50,0.0424
3790.00,0.0425
3789.50,0.0425
3789.00,0.0426
3788.50,0.0427
3788.00,0.0428
3787.50,0.0428
3787.00,0.0429
3786.50,0.0430
3786.00,0.0430
3785.50,0.0430
3785.00,0.0430
3784.50,0.0431
3784.00,0.0431
3783.50,0.0432
3783.00,0.0433
3782.50,0.0434
3782.00,0.0435
3781.50,0.0435
3781.00,0.0436
3780.50,0.0435
3780.00,0.0435
3779.50,0.0436
3779.00,0.0436
3778.50,0.0437
3778.00,0.0438
3777.50,0.0439
3777.00,0.0440
3776.50,0.0441
3776.00,0.0442
3775.50,0.0443
3775.00,0.0443
3774.50,0.0444
3774.00,0.0444
3773.50,0.0444
3773.00,0.0445
3772.50,0.0445
3772.00,0.0446
3771.50,0.0446
3771.00,0.0446
3770.50,0.0446
3770.00,0.0446
3769.50,0.0447
3769.00,0.0447
3768.50,0.0447
3768.00,0.0448
3767.50,0.0449
3767.00,0.0449
3766.50,0.0449
3766.00,0.0449
3765.50,0.0449
3765.00,0.0449
3764.50,0.0449
3764.00,0.0449
3763.50,0.0450
3763.00,0.0450
3762.50,0.0451
3762.00,0.0451
3761.50,0.0451
3761.00,0.0451
3760.50,0.0451
3760.00,0.0450
3759.50,0.0450
3759.00,0.0449
3758.50,0.0449
3758.00,0.0449
3757.50,0.0449
3757.00,0.0450
3756.50,0.0450
3756.00,0.0450
3755.50,0.0449
3755.00,0.0449
3754.50,0.0450
3754.00,0.0450
3753.50,0.0449
3753.00,0.0448
3752.50,0.0448
3752.00,0.0450
3751.50,0.0450
3751.00,0.0448
3750.50,0.0444
3750.00,0.0443
3749.50,0.0446
3749.00,0.0448
3748.50,0.0447
3748.00,0.0445
3747.50,0.0444
3747.00,0.0444
3746.50,0.0444
3746.00,0.0442
3745.50,0.0440
3745.00,0.0441
3744.50,0.0442
3744.00,0.0441
3743.50,0.0441
3743.00,0.0441
3742.50,0.0440
3742.00,0.0439
3741.50,0.0440
3741.00,0.0440
3740.50,0.0439
3740.00,0.0438
3739.50,0.0437
3739.00,0.0437
3738.50,0.0437
3738.00,0.0437
3737.50,0.0436
3737.00,0.0435
3736.50,0.0435
3736.00,0.0435
3735.50,0.0433
3735.00,0.0432
3734.50,0.0433
3734.00,0.0435
3733.50,0.0435
3733.00,0.0435
3732.50,0.0437
3732.00,0.0441
3731.50,0.0442
3731.00,0.0442
3730.50,0.0441
3730.00,0.0442
3729.50,0.0443
3729.00,0.0444
3728.50,0.0444
3728.00,0.0445
3727.50,0.0445
3727.00,0.0445
3726.50,0.0446
3726.00,0.0446
3725.50,0.0446
3725.00,0.0447
3724.50,0.0448
3724.00,0.0449
3723.50,0.0450
3723.00,0.0451
3722.50,0.0451
3722.00,0.0452
3721.50,0.0453
3721.00,0.0454
3720.50,0.0455
3720.00,0.0456
3719.50,0.0457
3719.00,0.0457
3718.50,0.0458
3718.00,0.0459
3717.50,0.0460
3717.00,0.0461
3716.50,0.0462
3716.00,0.0463
3715.50,0.0463
3715.00,0.0464
3714.50,0.0465
3714.00,0.0465
3713.50,0.0466
3713.00,0.0466
3712.50,0.0468
3712.00,0.0470
3711.50,0.0470
3711.00,0.0470
3710.50,0.0469
3710.00,0.0470
3709.50,0.0472
3709.00,0.0475
3708.50,0.0476
3708.00,0.0476
3707.50,0.0477
3707.00,0.0479
3706.50,0.0480
3706.00,0.0481
3705.50,0.0481
3705.00,0.0482
3704.50,0.0482
3704.00,0.0483
3703.50,0.0484
3703.00,0.0484
3702.50,0.0484
3702.00,0.0484
3701.50,0.0484
3701.00,0.0484
3700.50,0.0484
3700.00,0.0484
3699.50,0.0485
3699.00,0.0485
3698.50,0.0485
3698.00,0.0485
3697.50,0.0484
3697.00,0.0483
3696.50,0.0483
3696.00,0.0482
3695.50,0.0482
3695.00,0.0482
3694.50,0.0481
3694.00,0.0481
3693.50,0.0480
3693.00,0.0480
3692.50,0.0478
3692.00,0.0477
3691.50,0.0475
3691.00,0.0474
3690.50,0.0473
3690.00,0.0471
3689.50,0.0468
3689.00,0.0467
3688.50,0.0469
3688.00,0.0470
3687.50,0.0470
3687.00,0.0469
3686.50,0.0469
3686.00,0.0469
3685.50,0.0469
3685.00,0.0469
3684.50,0.0468
3684.00,0.0468
3683.50,0.0467
3683.00,0.0467
3682.50,0.0467
3682.00,0.0467
3681.50,0.0466
3681.00,0.0466
3680.50,0.0465
3680.00,0.0465
3679.50,0.0464
3679.00,0.0464
3678.50,0.0464
3678.00,0.0463
3677.50,0.0463
3677.00,0.0463
3676.50,0.0463
3676.00,0.0464
3675.50,0.0462
3675.00,0.0460
3674.50,0.0459
3674.00,0.0461
3673.50,0.0462
3673.00,0.0464
3672.50,0.0464
3672.00,0.0464
3671.50,0.0464
3671.00,0.0466
3670.50,0.0467
3670.00,0.0467
3669.50,0.0465
3669.00,0.0464
3668.50,0.0465
3668.00,0.0467
3667.50,0.0468
3667.00,0.0468
3666.50,0.0469
3666.00,0.0471
3665.50,0.0472
3665.00,0.0472
3664.50,0.0472
3664.00,0.0473
3663.50,0.0473
3663.00,0.0474
3662.50,0.0474
3662.00,0.0474
3661.50,0.0475
3661.00,0.0475
3660.50,0.0475
3660.00,0.0476
3659.50,0.0477
3659.00,0.0478
3658.50,0.0479
3658.00,0.0479
3657.50,0.0479
3657.00,0.0480
3656.50,0.0481
3656.00,0.0482
3655.50,0.0483
3655.00,0.0484
3654.50,0.0484
3654.00,0.0485
3653.50,0.0486
3653.00,0.0487
3652.50,0.0486
3652.00,0.0486
3651.50,0.0486
3651.00,0.0485
3650.50,0.0484
3650.00,0.0483
3649.50,0.0484
3649.00,0.0487
3648.50,0.0488
3648.00,0.0488
3647.50,0.0487
3647.00,0.0488
3646.50,0.0488
3646.00,0.0489
3645.50,0.0490
3645.00,0.0491
3644.50,0.0492
3644.00,0.0493
3643.50,0.0493
3643.00,0.0493
3642.50,0.0493
3642.00,0.0493
3641.50,0.0493
3641.00,0.0493
3640.50,0.0493
3640.00,0.0493
3639.50,0.0493
3639.00,0.0492
3638.50,0.0492
3638.00,0.0491
3637.50,0.0491
3637.00,0.0491
3636.50,0.0490
3636.00,0.0490
3635.50,0.0490
3635.00,0.0489
3634.50,0.0488
3634.00,0.0488
3633.50,0.0487
3633.00,0.0486
3632.50,0.0486
3632.00,0.0486
3631.50,0.0486
3631.00,0.0485
3630.50,0.0484
3630.00,0.0483
3629.50,0.0483
3629.00,0.0481
3628.50,0.0479
3628.00,0.0479
3627.50,0.0480
3627.00,0.0480
3626.50,0.0480
3626.00,0.0480
3625.50,0.0480
3625.00,0.0481
3624.50,0.0480
3624.00,0.0480
3623.50,0.0480
3623.00,0.0480
3622.50,0.0479
3622.00,0.0478
3621.50,0.0478
3621.00,0.0477
3620.50,0.0477
3620.00,0.0477
3619.50,0.0478
3619.00,0.0478
3618.50,0.0477
3618.00,0.0476
3617.50,0.0476
3617.00,0.0476
3616.50,0.0477
3616.00,0.0477
3615.50,0.0477
3615.00,0.0477
3614.50,0.0477
3614.00,0.0477
3613.50,0.0476
3613.00,0.0476
3612.50,0.0476
3612.00,0.0477
3611.50,0.0477
3611.00,0.0477
3610.50,0.0477
3610.00,0.0477
3609.50,0.0478
3609.00,0.0479
3608.50,0.0478
3608.00,0.0477
3607.50,0.0477
3607.00,0.0477
3606.50,0.0477
3606.00,0.0478
3605.50,0.0478
3605.00,0.0479
3604.50,0.0479
3604.00,0.0480
3603.50,0.0480
3603.00,0.0480
3602.50,0.0480
3602.00,0.0480
3601.50,0.0480
3601.00,0.0480
3600.50,0.0480
3600.00,0.0480
3599.50,0.0479
3599.00,0.0480
3598.50,0.0480
3598.00,0.0481
3597.50,0.0482
3597.00,0.0482
3596.50,0.0482
3596.00,0.0482
3595.50,0.0482
3595.00,0.0481
3594.50,0.0481
3594.00,0.0481
3593.50,0.0481
3593.00,0.0481
3592.50,0.0482
3592.00,0.0482
3591.50,0.0482
3591.00,0.0483
3590.50,0.0483
3590.00,0.0483
3589.50,0.0482
3589.00,0.0482
3588.50,0.0481
3588.00,0.0480
3587.50,0.0478
3587.00,0.0476
3586.50,0.0475
3586.00,0.0476
3585.50,0.0477
3585.00,0.0477
3584.50,0.0479
3584.00,0.0480
3583.50,0.0480
3583.00,0.0479
3582.50,0.0479
3582.00,0.0478
3581.50,0.0479
3581.00,0.0479
3580.50,0.0479
3580.00,0.0478
3579.50,0.0478
3579.00,0.0478
3578.50,0.0478
3578.00,0.0477
3577.50,0.0477
3577.00,0.0477
3576.50,0.0477
3576.00,0.0476
3575.50,0.0476
3575.00,0.0476
3574.50,0.0476
3574.00,0.0475
3573.50,0.0475
3573.00,0.0474
3572.50,0.0474
3572.00,0.0474
3571.50,0.0473
3571.00,0.0473
3570.50,0.0472
3570.00,0.0472
3569.50,0.0471
3569.00,0.0471
3568.50,0.0471
3568.00,0.0470
3567.50,0.0469
3567.00,0.0467
3566.50,0.0466
3566.00,0.0466
3565.50,0.0466
3565.00,0.0467
3564.50,0.0467
3564.00,0.0468
3563.50,0.0469
3563.00,0.0468
3562.50,0.0468
3562.00,0.0467
3561.50,0.0467
3561.00,0.0467
3560.50,0.0467
3560.00,0.0467
3559.50,0.0467
3559.00,0.0467
3558.50,0.0467
3558.00,0.0467
3557.50,0.0467
3557.00,0.0467
3556.50,0.0467
3556.00,0.0467
3555.50,0.0467
3555.00,0.0467
3554.50,0.0466
3554.00,0.0466
3553.50,0.0466
3553.00,0.0465
3552.50,0.0464
3552.00,0.0464
3551.50,0.0464
3551.00,0.0464
3550.50,0.0464
3550.00,0.0465
3549.50,0.0465
3549.00,0.0465
3548.50,0.0465
3548.00,0.0464
3547.50,0.0463
3547.00,0.0462
3546.50,0.0461
3546.00,0.0460
3545.50,0.0460
3545.00,0.0460
3544.50,0.0461
3544.00,0.0461
3543.50,0.0461
3543.00,0.0462
3542.50,0.0462
3542.00,0.0463
3541.50,0.0463
3541.00,0.0464
3540.50,0.0464
3540.00,0.0464
3539.50,0.0464
3539.00,0.0464
3538.50,0.0464
3538.00,0.0463
3537.50,0.0463
3537.00,0.0462
3536.50,0.0462
3536.00,0.0462
3535.50,0.0462
3535.00,0.0463
3534.50,0.0463
3534.00,0.0464
3533.50,0.0464
3533.00,0.0464
3532.50,0.0464
3532.00,0.0464
3531.50,0.0463
3531.00,0.0463
3530.50,0.0463
3530.00,0.0463
3529.50,0.0463
3529.00,0.0462
3528.50,0.0462
3528.00,0.0462
3527.50,0.0462
3527.00,0.0462
3526.50,0.0461
3526.00,0.0461
3525.50,0.0461
3525.00,0.0460
3524.50,0.0460
3524.00,0.0459
3523.50,0.0459
3523.00,0.0459
3522.50,0.0460
3522.00,0.0460
3521.50,0.0461
3521.00,0.0461
3520.50,0.0461
3520.00,0.0461
3519.50,0.0461
3519.00,0.0461
3518.50,0.0461
3518.00,0.0460
3517.50,0.0460
3517.00,0.0460
3516.50,0.0460
3516.00,0.0460
3515.50,0.0460
3515.00,0.0459
3514.50,0.0459
3514.00,0.0459
3513.50,0.0458
3513.00,0.0458
3512.50,0.0459
3512.00,0.0459
3511.50,0.0459
3511.00,0.0459
3510.50,0.0458
3510.00,0.0458
3509.50,0.0458
3509.00,0.0458
3508.50,0.0458
3508.00,0.0458
3507.50,0.0458
3507.00,0.0458
3506.50,0.0458
3506.00,0.0457
3505.50,0.0457
3505.00,0.0457
3504.50,0.0456
3504.00,0.0455
3503.50,0.0454
3503.00,0.0454
3502.50,0.0453
3502.00,0.0454
3501.50,0.0454
3501.00,0.0455
3500.50,0.0455
3500.00,0.0455
3499.50,0.0455
3499.00,0.0454
3498.50,0.0454
3498.00,0.0454
3497.50,0.0453
3497.00,0.0453
3496.50,0.0453
3496.00,0.0453
3495.50,0.0453
3495.00,0.0453
3494.50,0.0453
3494.00,0.0453
3493.50,0.0453
3493.00,0.0453
3492.50,0.0453
3492.00,0.0453
3491.50,0.0453
3491.00,0.0453
3490.50,0.0452
3490.00,0.0452
3489.50,0.0452
3489.00,0.0452
3488.50,0.0451
3488.00,0.0450
3487.50,0.0450
3487.00,0.0450
3486.50,0.0450
3486.00,0.0450
3485.50,0.0450
3485.00,0.0451
3484.50,0.0451
3484.00,0.0451
3483.50,0.0451
3483.00,0.0450
3482.50,0.0450
3482.00,0.0449
3481.50,0.0449
3481.00,0.0448
3480.50,0.0447
3480.00,0.0447
3479.50,0.0447
3479.00,0.0448
3478.50,0.0448
3478.00,0.0448
3477.50,0.0448
3477.00,0.0448
3476.50,0.0448
3476.00,0.0448
3475.50,0.0448
3475.00,0.0447
3474.50,0.0447
3474.00,0.0447
3473.50,0.0447
3473.00,0.0447
3472.50,0.0447
3472.00,0.0447
3471.50,0.0446
3471.00,0.0445
3470.50,0.0445
3470.00,0.0444
3469.50,0.0444
3469.00,0.0443
3468.50,0.0443
3468.00,0.0443
3467.50,0.0443
3467.00,0.0443
3466.50,0.0443
3466.00,0.0443
3465.50,0.0443
3465.00,0.0443
3464.50,0.0444
3464.00,0.0444
3463.50,0.0444
3463.00,0.0443
3462.50,0.0443
3462.00,0.0443
3461.50,0.0442
3461.00,0.0441
3460.50,0.0441
3460.00,0.0441
3459.50,0.0441
3459.00,0.0441
3458.50,0.0442
3458.00,0.0442
3457.50,0.0442
3457.00,0.0441
3456.50,0.0441
3456.00,0.0441
3455.50,0.0441
3455.00,0.0441
3454.50,0.0441
3454.00,0.0441
3453.50,0.0440
3453.00,0.0440
3452.50,0.0440
3452.00,0.0440
3451.50,0.0440
3451.00,0.0440
3450.50,0.0439
3450.00,0.0439
3449.50,0.0439
3449.00,0.0439
3448.50,0.0438
3448.00,0.0438
3447.50,0.0437
3447.00,0.0437
3446.50,0.0437
3446.00,0.0437
3445.50,0.0437
3445.00,0.0437
3444.50,0.0437
3444.00,0.0437
3443.50,0.0437
3443.00,0.0437
3442.50,0.0436
3442.00,0.0436
3441.50,0.0436
3441.00,0.0436
3440.50,0.0436
3440.00,0.0435
3439.50,0.0435
3439.00,0.0434
3438.50,0.0434
3438.00,0.0433
3437.50,0.0433
3437.00,0.0432
3436.50,0.0432
3436.00,0.0432
3435.50,0.0432
3435.00,0.0431
3434.50,0.0432
3434.00,0.0432
3433.50,0.0432
3433.00,0.0432
3432.50,0.0432
3432.00,0.0432
3431.50,0.0431
3431.00,0.0431
3430.50,0.0431
3430.00,0.0431
3429.50,0.0431
3429.00,0.0431
3428.50,0.0431
3428.00,0.0431
3427.50,0.0431
3427.00,0.0431
3426.50,0.0431
3426.00,0.0431
3425.50,0.0431
3425.00,0.0431
3424.50,0.0431
3424.00,0.0431
3423.50,0.0430
3423.00,0.0430
3422.50,0.0430
3422.00,0.0430
3421.50,0.0429
3421.00,0.0429
3420.50,0.0429
3420.00,0.0429
3419.50,0.0429
3419.00,0.0429
3418.50,0.0429
3418.00,0.0429
3417.50,0.0429
3417.00,0.0429
3416.50,0.0429
3416.00,0.0429
3415.50,0.0428
3415.00,0.0428
3414.50,0.0428
3414.00,0.0427
3413.50,0.0427
3413.00,0.0427
3412.50,0.0427
3412.00,0.0427
3411.50,0.0427
3411.00,0.0427
3410.50,0.0427
3410.00,0.0426
3409.50,0.0426
3409.00,0.0426
3408.50,0.0426
3408.00,0.0426
3407.50,0.0426
3407.00,0.0426
3406.50,0.0426
3406.00,0.0426
3405.50,0.0426
3405.00,0.0426
3404.50,0.0426
3404.00,0.0425
3403.50,0.0425
3403.00,0.0424
3402.50,0.0423
3402.00,0.0423
3401.50,0.0422
3401.00,0.0422
3400.50,0.0422
3400.00,0.0423
3399.50,0.0423
3399.00,0.0423
3398.50,0.0424
3398.00,0.0424
3397.50,0.0424
3397.00,0.0424
3396.50,0.0424
3396.00,0.0423
3395.50,0.0423
3395.00,0.0423
3394.50,0.0423
3394.00,0.0423
3393.50,0.0422
3393.00,0.0422
3392.50,0.0421
3392.00,0.0421
3391.50,0.0421
3391.00,0.0421
3390.50,0.0422
3390.00,0.0422
3389.50,0.0423
3389.00,0.0423
3388.50,0.0423
3388.00,0.0423
3387.50,0.0423
3387.00,0.0423
3386.50,0.0423
3386.00,0.0423
3385.50,0.0423
3385.00,0.0423
3384.50,0.0423
3384.00,0.0423
3383.50,0.0422
3383.00,0.0422
3382.50,0.0422
3382.00,0.0422
3381.50,0.0422
3381.00,0.0421
3380.50,0.0421
3380.00,0.0421
3379.50,0.0422
3379.00,0.0422
3378.50,0.0422
3378.00,0.0421
3377.50,0.0421
3377.00,0.0421
3376.50,0.0421
3376.00,0.0421
3375.50,0.0421
3375.00,0.0421
3374.50,0.0421
3374.00,0.0421
3373.50,0.0421
3373.00,0.0421
3372.50,0.0421
3372.00,0.0420
3371.50,0.0420
3371.00,0.0419
3370.50,0.0419
3370.00,0.0419
3369.50,0.0419
3369.00,0.0419
3368.50,0.0419
3368.00,0.0419
3367.50,0.0419
3367.00,0.0419
3366.50,0.0419
3366.00,0.0420
3365.50,0.0420
3365.00,0.0420
3364.50,0.0421
3364.00,0.0421
3363.50,0.0421
3363.00,0.0421
3362.50,0.0421
3362.00,0.0421
3361.50,0.0420
3361.00,0.0420
3360.50,0.0420
3360.00,0.0420
3359.50,0.0421
3359.00,0.0421
3358.50,0.0421
3358.00,0.0421
3357.50,0.0421
3357.00,0.0421
3356.50,0.0421
3356.00,0.0421
3355.50,0.0421
3355.00,0.0421
3354.50,0.0421
3354.00,0.0421
3353.50,0.0420
3353.00,0.0420
3352.50,0.0420
3352.00,0.0419
3351.50,0.0419
3351.00,0.0418
3350.50,0.0418
3350.00,0.0419
3349.50,0.0419
3349.00,0.0420
3348.50,0.0420
3348.00,0.0420
3347.50,0.0420
3347.00,0.0420
3346.50,0.0420
3346.00,0.0420
3345.50,0.0420
3345.00,0.0420
3344.50,0.0419
3344.00,0.0419
3343.50,0.0419
3343.00,0.0419
3342.50,0.0419
3342.00,0.0419
3341.50,0.0419
3341.00,0.0419
3340.50,0.0419
3340.00,0.0419
3339.50,0.0418
3339.00,0.0418
3338.50,0.0418
3338.00,0.0418
3337.50,0.0418
3337.00,0.0418
3336.50,0.0418
3336.00,0.0419
3335.50,0.0419
3335.00,0.0419
3334.50,0.0419
3334.00,0.0419
3333.50,0.0419
3333.00,0.0419
3332.50,0.0419
3332.00,0.0419
3331.50,0.0419
3331.00,0.0419
3330.50,0.0419
3330.00,0.0419
3329.50,0.0419
3329.00,0.0419
3328.50,0.0419
3328.00,0.0418
3327.50,0.0418
3327.00,0.0417
3326.50,0.0417
3326.00,0.0417
3325.50,0.0417
3325.00,0.0417
3324.50,0.0417
3324.00,0.0417
3323.50,0.0418
3323.00,0.0418
3322.50,0.0418
3322.00,0.0418
3321.50,0.0418
3321.00,0.0418
3320.50,0.0418
3320.00,0.0418
3319.50,0.0417
3319.00,0.0417
3318.50,0.0417
3318.00,0.0417
3317.50,0.0417
3317.00,0.0417
3316.50,0.0417
3316.00,0.0417
3315.50,0.0417
3315.00,0.0417
3314.50,0.0417
3314.00,0.0417
3313.50,0.0417
3313.00,0.0416
3312.50,0.0416
3312.00,0.0416
3311.50,0.0416
3311.00,0.0416
3310.50,0.0415
3310.00,0.0415
3309.50,0.0414
3309.00,0.0414
3308.50,0.0414
3308.00,0.0414
3307.50,0.0414
3307.00,0.0414
3306.50,0.0414
3306.00,0.0414
3305.50,0.0414
3305.00,0.0414
3304.50,0.0414
3304.00,0.0415
3303.50,0.0415
3303.00,0.0416
3302.50,0.0416
3302.00,0.0416
3301.50,0.0416
3301.00,0.0416
3300.50,0.0416
3300.00,0.0416
3299.50,0.0416
3299.00,0.0416
3298.50,0.0416
3298.00,0.0415
3297.50,0.0415
3297.00,0.0415
3296.50,0.0414
3296.00,0.0414
3295.50,0.0414
3295.00,0.0414
3294.50,0.0414
3294.00,0.0414
3293.50,0.0414
3293.00,0.0414
3292.50,0.0414
3292.00,0.0413
3291.50,0.0414
3291.00,0.0414
3290.50,0.0415
3290.00,0.0415
3289.50,0.0415
3289.00,0.0415
3288.50,0.0415
3288.00,0.0415
3287.50,0.0415
3287.00,0.0415
3286.50,0.0416
3286.00,0.0416
3285.50,0.0416
3285.00,0.0416
3284.50,0.0416
3284.00,0.0415
3283.50,0.0415
3283.00,0.0415
3282.50,0.0415
3282.00,0.0415
3281.50,0.0415
3281.00,0.0415
3280.50,0.0415
3280.00,0.0415
3279.50,0.0415
3279.00,0.0415
3278.50,0.0416
3278.00,0.0415
3277.50,0.0415
3277.00,0.0415
3276.50,0.0415
3276.00,0.0414
3275.50,0.0414
3275.00,0.0414
3274.50,0.0414
3274.00,0.0415
3273.50,0.0414
3273.00,0.0414
3272.50,0.0414
3272.00,0.0413
3271.50,0.0413
3271.00,0.0413
3270.50,0.0413
3270.00,0.0414
3269.50,0.0414
3269.00,0.0414
3268.50,0.0415
3268.00,0.0415
3267.50,0.0416
3267.00,0.0416
3266.50,0.0416
3266.00,0.0416
3265.50,0.0416
3265.00,0.0416
3264.50,0.0416
3264.00,0.0416
3263.50,0.0416
3263.00,0.0416
3262.50,0.0416
3262.00,0.0416
3261.50,0.0416
3261.00,0.0416
3260.50,0.0416
3260.00,0.0416
3259.50,0.0416
3259.00,0.0416
3258.50,0.0416
3258.00,0.0415
3257.50,0.0415
3257.00,0.0415
3256.50,0.0415
3256.00,0.0414
3255.50,0.0415
3255.00,0.0415
3254.50,0.0415
3254.00,0.0416
3253.50,0.0416
3253.00,0.0416
3252.50,0.0416
3252.00,0.0416
3251.50,0.0416
3251.00,0.0416
3250.50,0.0416
3250.00,0.0416
3249.50,0.0416
3249.00,0.0416
3248.50,0.0415
3248.00,0.0415
3247.50,0.0415
3247.00,0.0415
3246.50,0.0415
3246.00,0.0415
3245.50,0.0416
3245.00,0.0416
3244.50,0.0416
3244.00,0.0416
3243.50,0.0417
3243.00,0.0417
3242.50,0.0417
3242.00,0.0417
3241.50,0.0417
3241.00,0.0417
3240.50,0.0417
3240.00,0.0417
3239.50,0.0417
3239.00,0.0417
3238.50,0.0417
3238.00,0.0417
3237.50,0.0417
3237.00,0.0417
3236.50,0.0417
3236.00,0.0417
3235.50,0.0416
3235.00,0.0416
3234.50,0.0416
3234.00,0.0415
3233.50,0.0415
3233.00,0.0416
3232.50,0.0416
3232.00,0.0417
3231.50,0.0417
3231.00,0.0417
3230.50,0.0417
3230.00,0.0418
3229.50,0.0418
3229.00,0.0418
3228.50,0.0418
3228.00,0.0418
3227.50,0.0418
3227.00,0.0418
3226.50,0.0418
3226.00,0.0418
3225.50,0.0418
3225.00,0.0419
3224.50,0.0419
3224.00,0.0419
3223.50,0.0419
3223.00,0.0419
3222.50,0.0419
3222.00,0.0419
3221.50,0.0419
3221.00,0.0419
3220.50,0.0419
3220.00,0.0419
3219.50,0.0419
3219.00,0.0419
3218.50,0.0419
3218.00,0.0419
3217.50,0.0419
3217.00,0.0420
3216.50,0.0420
3216.00,0.0420
3215.50,0.0420
3215.00,0.0420
3214.50,0.0420
3214.00,0.0420
3213.50,0.0420
3213.00,0.0420
3212.50,0.0420
3212.00,0.0420
3211.50,0.0421
3211.00,0.0421
3210.50,0.0421
3210.00,0.0421
3209.50,0.0421
3209.00,0.0421
3208.50,0.0421
3208.00,0.0421
3207.50,0.0421
3207.00,0.0421
3206.50,0.0421
3206.00,0.0421
3205.50,0.0421
3205.00,0.0422
3204.50,0.0422
3204.00,0.0422
3203.50,0.0422
3203.00,0.0422
3202.50,0.0422
3202.00,0.0422
3201.50,0.0422
3201.00,0.0423
3200.50,0.0423
3200.00,0.0423
3199.50,0.0423
3199.00,0.0423
3198.50,0.0423
3198.00,0.0423
3197.50,0.0423
3197.00,0.0424
3196.50,0.0424
3196.00,0.0424
3195.50,0.0424
3195.00,0.0424
3194.50,0.0424
3194.00,0.0425
3193.50,0.0425
3193.00,0.0425
3192.50,0.0425
3192.00,0.0425
3191.50,0.0426
3191.00,0.0426
3190.50,0.0426
3190.00,0.0426
3189.50,0.0426
3189.00,0.0426
3188.50,0.0427
3188.00,0.0427
3187.50,0.0428
3187.00,0.0428
3186.50,0.0428
3186.00,0.0428
3185.50,0.0428
3185.00,0.0428
3184.50,0.0428
3184.00,0.0428
3183.50,0.0428
3183.00,0.0428
3182.50,0.0428
3182.00,0.0428
3181.50,0.0428
3181.00,0.0428
3180.50,0.0428
3180.00,0.0428
3179.50,0.0428
3179.00,0.0428
3178.50,0.0428
3178.00,0.0428
3177.50,0.0428
3177.00,0.0428
3176.50,0.0428
3176.00,0.0428
3175.50,0.0428
3175.00,0.0428
3174.50,0.0428
3174.00,0.0428
3173.50,0.0428
3173.00,0.0429
3172.50,0.0429
3172.00,0.0429
3171.50,0.0429
3171.00,0.0429
3170.50,0.0429
3170.00,0.0429
3169.50,0.0430
3169.00,0.0430
3168.50,0.0430
3168.00,0.0430
3167.50,0.0430
3167.00,0.0430
3166.50,0.0431
3166.00,0.0431
3165.50,0.0431
3165.00,0.0431
3164.50,0.0431
3164.00,0.0432
3163.50,0.0432
3163.00,0.0432
3162.50,0.0432
3162.00,0.0433
3161.50,0.0433
3161.00,0.0433
3160.50,0.0434
3160.00,0.0434
3159.50,0.0434
3159.00,0.0434
3158.50,0.0435
3158.00,0.0435
3157.50,0.0435
3157.00,0.0435
3156.50,0.0435
3156.00,0.0435
3155.50,0.0436
3155.00,0.0436
3154.50,0.0436
3154.00,0.0436
3153.50,0.0435
3153.00,0.0435
3152.50,0.0435
3152.00,0.0436
3151.50,0.0437
3151.00,0.0438
3150.50,0.0439
3150.00,0.0439
3149.50,0.0440
3149.00,0.0440
3148.50,0.0441
3148.00,0.0441
3147.50,0.0441
3147.00,0.0442
3146.50,0.0442
3146.00,0.0442
3145.50,0.0443
3145.00,0.0443
3144.50,0.0444
3144.00,0.0444
3143.50,0.0444
3143.00,0.0445
3142.50,0.0445
3142.00,0.0446
3141.50,0.0446
3141.00,0.0446
3140.50,0.0446
3140.00,0.0446
3139.50,0.0446
3139.00,0.0447
3138.50,0.0448
3138.00,0.0449
3137.50,0.0450
3137.00,0.0451
3136.50,0.0451
3136.00,0.0452
3135.50,0.0453
3135.00,0.0454
3134.50,0.0454
3134.00,0.0455
3133.50,0.0456
3133.00,0.0456
3132.50,0.0457
3132.00,0.0457
3131.50,0.0457
3131.00,0.0458
3130.50,0.0458
3130.00,0.0459
3129.50,0.0459
3129.00,0.0460
3128.50,0.0461
3128.00,0.0462
3127.50,0.0463
3127.00,0.0464
3126.50,0.0464
3126.00,0.0465
3125.50,0.0466
3125.00,0.0466
3124.50,0.0467
3124.00,0.0467
3123.50,0.0468
3123.00,0.0468
3122.50,0.0468
3122.00,0.0468
3121.50,0.0468
3121.00,0.0468
3120.50,0.0468
3120.00,0.0469
3119.50,0.0470
3119.00,0.0470
3118.50,0.0471
3118.00,0.0471
3117.50,0.0471
3117.00,0.0471
3116.50,0.0472
3116.00,0.0472
3115.50,0.0473
3115.00,0.0474
3114.50,0.0474
3114.00,0.0475
3113.50,0.0476
3113.00,0.0477
3112.50,0.0477
3112.00,0.0477
3111.50,0.0478
3111.00,0.0478
3110.50,0.0478
3110.00,0.0477
3109.50,0.0477
3109.00,0.0477
3108.50,0.0477
3108.00,0.0478
3107.50,0.0479
3107.00,0.0479
3106.50,0.0479
3106.00,0.0480
3105.50,0.0480
3105.00,0.0480
3104.50,0.0480
3104.00,0.0480
3103.50,0.0481
3103.00,0.0481
3102.50,0.0481
3102.00,0.0480
3101.50,0.0480
3101.00,0.0480
3100.50,0.0479
3100.00,0.0479
3099.50,0.0480
3099.00,0.0480
3098.50,0.0481
3098.00,0.0481
3097.50,0.0481
3097.00,0.0481
3096.50,0.0481
3096.00,0.0481
3095.50,0.0481
3095.00,0.0481
3094.50,0.0481
3094.00,0.0481
3093.50,0.0481
3093.00,0.0481
3092.50,0.0481
3092.00,0.0480
3091.50,0.0480
3091.00,0.0480
3090.50,0.0480
3090.00,0.0480
3089.50,0.0480
3089.00,0.0481
3088.50,0.0481
3088.00,0.0481
3087.50,0.0481
3087.00,0.0481
3086.50,0.0481
3086.00,0.0481
3085.50,0.0481
3085.00,0.0481
3084.50,0.0481
3084.00,0.0482
3083.50,0.0482
3083.00,0.0483
3082.50,0.0483
3082.00,0.0483
3081.50,0.0483
3081.00,0.0483
3080.50,0.0483
3080.00,0.0483
3079.50,0.0484
3079.00,0.0484
3078.50,0.0484
3078.00,0.0485
3077.50,0.0486
3077.00,0.0486
3076.50,0.0487
3076.00,0.0488
3075.50,0.0489
3075.00,0.0490
3074.50,0.0490
3074.00,0.0491
3073.50,0.0491
3073.00,0.0492
3072.50,0.0492
3072.00,0.0493
3071.50,0.0493
3071.00,0.0494
3070.50,0.0495
3070.00,0.0495
3069.50,0.0496
3069.00,0.0496
3068.50,0.0496
3068.00,0.0497
3067.50,0.0497
3067.00,0.0498
3066.50,0.0499
3066.00,0.0501
3065.50,0.0502
3065.00,0.0504
3064.50,0.0505
3064.00,0.0506
3063.50,0.0507
3063.00,0.0509
3062.50,0.0511
3062.00,0.0513
3061.50,0.0514
3061.00,0.0516
3060.50,0.0518
3060.00,0.0519
3059.50,0.0521
3059.00,0.0523
3058.50,0.0525
3058.00,0.0526
3057.50,0.0528
3057.00,0.0530
3056.50,0.0532
3056.00,0.0533
3055.50,0.0535
3055.00,0.0536
3054.50,0.0537
3054.00,0.0539
3053.50,0.0540
3053.00,0.0540
3052.50,0.0540
3052.00,0.0539
3051.50,0.0538
3051.00,0.0537
3050.50,0.0535
3050.00,0.0534
3049.50,0.0533
3049.00,0.0531
3048.50,0.0529
3048.00,0.0527
3047.50,0.0525
3047.00,0.0522
3046.50,0.0520
3046.00,0.0518
3045.50,0.0516
3045.00,0.0515
3044.50,0.0513
3044.00,0.0512
3043.50,0.0511
3043.00,0.0510
3042.50,0.0509
3042.00,0.0508
3041.50,0.0508
3041.00,0.0508
3040.50,0.0507
3040.00,0.0507
3039.50,0.0507
3039.00,0.0507
3038.50,0.0507
3038.00,0.0507
3037.50,0.0507
3037.00,0.0506
3036.50,0.0506
3036.00,0.0505
3035.50,0.0504
3035.00,0.0504
3034.50,0.0504
3034.00,0.0504
3033.50,0.0504
3033.00,0.0505
3032.50,0.0505
3032.00,0.0506
3031.50,0.0506
3031.00,0.0506
3030.50,0.0507
3030.00,0.0507
3029.50,0.0508
3029.00,0.0509
3028.50,0.0509
3028.00,0.0510
3027.50,0.0511
3027.00,0.0511
3026.50,0.0512
3026.00,0.0512
3025.50,0.0512
3025.00,0.0513
3024.50,0.0514
3024.00,0.0516
3023.50,0.0517
3023.00,0.0519
3022.50,0.0520
3022.00,0.0521
3021.50,0.0523
3021.00,0.0524
3020.50,0.0525
3020.00,0.0526
3019.50,0.0528
3019.00,0.0530
3018.50,0.0531
3018.00,0.0532
3017.50,0.0534
3017.00,0.0535
3016.50,0.0536
3016.00,0.0537
3015.50,0.0538
3015.00,0.0539
3014.50,0.0540
3014.00,0.0541
3013.50,0.0542
3013.00,0.0544
3012.50,0.0545
3012.00,0.0546
3011.50,0.0547
3011.00,0.0548
3010.50,0.0550
3010.00,0.0552
3009.50,0.0554
3009.00,0.0556
3008.50,0.0558
3008.00,0.0560
3007.50,0.0562
3007.00,0.0564
3006.50,0.0566
3006.00,0.0568
3005.50,0.0570
3005.00,0.0573
3004.50,0.0575
3004.00,0.0578
3003.50,0.0581
3003.00,0.0584
3002.50,0.0588
3002.00,0.0592
3001.50,0.0595
3001.00,0.0599
3000.50,0.0603
3000.00,0.0608
2999.50,0.0612
2999.00,0.0616
2998.50,0.0621
2998.00,0.0626
2997.50,0.0632
2997.00,0.0638
2996.50,0.0645
2996.00,0.0652
2995.50,0.0659
2995.00,0.0666
2994.50,0.0673
2994.00,0.0681
2993.50,0.0689
2993.00,0.0698
2992.50,0.0708
2992.00,0.0718
2991.50,0.0729
2991.00,0.0741
2990.50,0.0753
2990.00,0.0766
2989.50,0.0779
2989.00,0.0794
2988.50,0.0809
2988.00,0.0825
2987.50,0.0843
2987.00,0.0861
2986.50,0.0881
2986.00,0.0901
2985.50,0.0923
2985.00,0.0947
2984.50,0.0972
2984.00,0.0999
2983.50,0.1027
2983.00,0.1058
2982.50,0.1090
2982.00,0.1125
2981.50,0.1163
2981.00,0.1204
2980.50,0.1247
2980.00,0.1294
2979.50,0.1344
2979.00,0.1398
2978.50,0.1457
2978.00,0.1520
2977.50,0.1587
2977.00,0.1660
2976.50,0.1737
2976.00,0.1820
2975.50,0.1908
2975.00,0.2003
2974.50,0.2105
2974.00,0.2214
2973.50,0.2330
2973.00,0.2453
2972.50,0.2583
2972.00,0.2719
2971.50,0.2862
2971.00,0.3011
2970.50,0.3166
2970.00,0.3326
2969.50,0.3490
2969.00,0.3657
2968.50,0.3824
2968.00,0.3991
2967.50,0.4153
2967.00,0.4310
2966.50,0.4459
2966.00,0.4596
2965.50,0.4718
2965.00,0.4822
2964.50,0.4905
2964.00,0.4965
2963.50,0.4999
2963.00,0.5006
2962.50,0.4986
2962.00,0.4940
2961.50,0.4867
2961.00,0.4769
2960.50,0.4650
2960.00,0.4513
2959.50,0.4360
2959.00,0.4195
2958.50,0.4023
2958.00,0.3846
2957.50,0.3668
2957.00,0.3491
2956.50,0.3318
2956.00,0.3150
2955.50,0.2989
2955.00,0.2835
2954.50,0.2689
2954.00,0.2551
2953.50,0.2422
2953.00,0.2303
2952.50,0.2192
2952.00,0.2090
2951.50,0.1996
2951.00,0.1908
2950.50,0.1827
2950.00,0.1752
2949.50,0.1681
2949.00,0.1616
2948.50,0.1554
2948.00,0.1497
2947.50,0.1444
2947.00,0.1395
2946.50,0.1349
2946.00,0.1307
2945.50,0.1268
2945.00,0.1230
2944.50,0.1195
2944.00,0.1163
2943.50,0.1134
2943.00,0.1106
2942.50,0.1081
2942.00,0.1057
2941.50,0.1035
2941.00,0.1014
2940.50,0.0994
2940.00,0.0976
2939.50,0.0958
2939.00,0.0942
2938.50,0.0926
2938.00,0.0912
2937.50,0.0898
2937.00,0.0885
2936.50,0.0872
2936.00,0.0861
2935.50,0.0850
2935.00,0.0840
2934.50,0.0830
2934.00,0.0822
2933.50,0.0813
2933.00,0.0805
2932.50,0.0798
2932.00,0.0791
2931.50,0.0784
2931.00,0.0777
2930.50,0.0771
2930.00,0.0766
2929.50,0.0761
2929.00,0.0757
2928.50,0.0754
2928.00,0.0751
2927.50,0.0748
2927.00,0.0745
2926.50,0.0742
2926.00,0.0740
2925.50,0.0738
2925.00,0.0737
2924.50,0.0736
2924.00,0.0735
2923.50,0.0735
2923.00,0.0735
2922.50,0.0736
2922.00,0.0737
2921.50,0.0739
2921.00,0.0740
2920.50,0.0743
2920.00,0.0745
2919.50,0.0749
2919.00,0.0752
2918.50,0.0757
2918.00,0.0762
2917.50,0.0768
2917.00,0.0775
2916.50,0.0782
2916.00,0.0791
2915.50,0.0800
2915.00,0.0810
2914.50,0.0821
2914.00,0.0832
2913.50,0.0845
2913.00,0.0859
2912.50,0.0875
2912.00,0.0891
2911.50,0.0907
2911.00,0.0924
2910.50,0.0941
2910.00,0.0958
2909.50,0.0976
2909.00,0.0993
2908.50,0.1009
2908.00,0.1024
2907.50,0.1038
2907.00,0.1050
2906.50,0.1060
2906.00,0.1068
2905.50,0.1073
2905.00,0.1075
2904.50,0.1075
2904.00,0.1072
2903.50,0.1067
2903.00,0.1060
2902.50,0.1050
2902.00,0.1039
2901.50,0.1026
2901.00,0.1011
2900.50,0.0995
2900.00,0.0978
2899.50,0.0961
2899.00,0.0944
2898.50,0.0926
2898.00,0.0908
2897.50,0.0891
2897.00,0.0873
2896.50,0.0857
2896.00,0.0841
2895.50,0.0825
2895.00,0.0811
2894.50,0.0797
2894.00,0.0784
2893.50,0.0771
2893.00,0.0759
2892.50,0.0747
2892.00,0.0737
2891.50,0.0726
2891.00,0.0717
2890.50,0.0708
2890.00,0.0699
2889.50,0.0691
2889.00,0.0683
2888.50,0.0675
2888.00,0.0668
2887.50,0.0662
2887.00,0.0655
2886.50,0.0649
2886.00,0.0644
2885.50,0.0638
2885.00,0.0633
2884.50,0.0628
2884.00,0.0624
2883.50,0.0619
2883.00,0.0615
2882.50,0.0611
2882.00,0.0607
2881.50,0.0603
2881.00,0.0600
2880.50,0.0596
2880.00,0.0593
2879.50,0.0590
2879.00,0.0587
2878.50,0.0584
2878.00,0.0581
2877.50,0.0578
2877.00,0.0575
2876.50,0.0573
2876.00,0.0570
2875.50,0.0567
2875.00,0.0564
2874.50,0.0562
2874.00,0.0559
2873.50,0.0556
2873.00,0.0554
2872.50,0.0553
2872.00,0.0551
2871.50,0.0549
2871.00,0.0548
2870.50,0.0546
2870.00,0.0544
2869.50,0.0542
2869.00,0.0541
2868.50,0.0539
2868.00,0.0538
2867.50,0.0536
2867.00,0.0534
2866.50,0.0533
2866.00,0.0532
2865.50,0.0530
2865.00,0.0529
2864.50,0.0528
2864.00,0.0527
2863.50,0.0526
2863.00,0.0525
2862.50,0.0524
2862.00,0.0523
2861.50,0.0522
2861.00,0.0521
2860.50,0.0520
2860.00,0.0519
2859.50,0.0519
2859.00,0.0518
2858.50,0.0518
2858.00,0.0518
2857.50,0.0517
2857.00,0.0517
2856.50,0.0517
2856.00,0.0516
2855.50,0.0516
2855.00,0.0516
2854.50,0.0515
2854.00,0.0515
2853.50,0.0515
2853.00,0.0514
2852.50,0.0514
2852.00,0.0514
2851.50,0.0514
2851.00,0.0513
2850.50,0.0513
2850.00,0.0513
2849.50,0.0512
2849.00,0.0511
2848.50,0.0510
2848.00,0.0510
2847.50,0.0509
2847.00,0.0509
2846.50,0.0509
2846.00,0.0509
2845.50,0.0508
2845.00,0.0508
2844.50,0.0507
2844.00,0.0507
2843.50,0.0506
2843.00,0.0506
2842.50,0.0506
2842.00,0.0505
2841.50,0.0505
2841.00,0.0504
2840.50,0.0503
2840.00,0.0502
2839.50,0.0501
2839.00,0.0501
2838.50,0.0500
2838.00,0.0500
2837.50,0.0500
2837.00,0.0500
2836.50,0.0499
2836.00,0.0499
2835.50,0.0498
2835.00,0.0498
2834.50,0.0497
2834.00,0.0497
2833.50,0.0496
2833.00,0.0495
2832.50,0.0495
2832.00,0.0494
2831.50,0.0494
2831.00,0.0493
2830.50,0.0493
2830.00,0.0492
2829.50,0.0492
2829.00,0.0492
2828.50,0.0491
2828.00,0.0491
2827.50,0.0491
2827.00,0.0490
2826.50,0.0490
2826.00,0.0490
2825.50,0.0490
2825.00,0.0490
2824.50,0.0489
2824.00,0.0489
2823.50,0.0489
2823.00,0.0489
2822.50,0.0490
2822.00,0.0490
2821.50,0.0490
2821.00,0.0490
2820.50,0.0490
2820.00,0.0491
2819.50,0.0491
2819.00,0.0491
2818.50,0.0492
2818.00,0.0492
2817.50,0.0492
2817.00,0.0492
2816.50,0.0493
2816.00,0.0493
2815.50,0.0493
2815.00,0.0493
2814.50,0.0494
2814.00,0.0494
2813.50,0.0494
2813.00,0.0494
2812.50,0.0494
2812.00,0.0494
2811.50,0.0494
2811.00,0.0494
2810.50,0.0493
2810.00,0.0493
2809.50,0.0493
2809.00,0.0493
2808.50,0.0493
2808.00,0.0493
2807.50,0.0493
2807.00,0.0493
2806.50,0.0493
2806.00,0.0493
2805.50,0.0493
2805.00,0.0492
2804.50,0.0492
2804.00,0.0492
2803.50,0.0492
2803.00,0.0492
2802.50,0.0491
2802.00,0.0491
2801.50,0.0491
2801.00,0.0490
2800.50,0.0490
2800.00,0.0490
2799.50,0.0489
2799.00,0.0488
2798.50,0.0488
2798.00,0.0488
2797.50,0.0488
2797.00,0.0488
2796.50,0.0487
2796.00,0.0487
2795.50,0.0486
2795.00,0.0485
2794.50,0.0485
2794.00,0.0484
2793.50,0.0483
2793.00,0.0482
2792.50,0.0481
2792.00,0.0480
2791.50,0.0479
2791.00,0.0477
2790.50,0.0476
2790.00,0.0474
2789.50,0.0472
2789.00,0.0471
2788.50,0.0469
2788.00,0.0468
2787.50,0.0466
2787.00,0.0464
2786.50,0.0463
2786.00,0.0461
2785.50,0.0459
2785.00,0.0457
2784.50,0.0455
2784.00,0.0453
2783.50,0.0451
2783.00,0.0449
2782.50,0.0447
2782.00,0.0446
2781.50,0.0444
2781.00,0.0442
2780.50,0.0440
2780.00,0.0439
2779.50,0.0437
2779.00,0.0436
2778.50,0.0434
2778.00,0.0433
2777.50,0.0432
2777.00,0.0430
2776.50,0.0428
2776.00,0.0427
2775.50,0.0425
2775.00,0.0424
2774.50,0.0423
2774.00,0.0422
2773.50,0.0422
2773.00,0.0421
2772.50,0.0420
2772.00,0.0419
2771.50,0.0418
2771.00,0.0417
2770.50,0.0417
2770.00,0.0416
2769.50,0.0415
2769.00,0.0414
2768.50,0.0413
2768.00,0.0413
2767.50,0.0412
2767.00,0.0411
2766.50,0.0411
2766.00,0.0410
2765.50,0.0409
2765.00,0.0409
2764.50,0.0408
2764.00,0.0408
2763.50,0.0407
2763.00,0.0407
2762.50,0.0406
2762.00,0.0406
2761.50,0.0405
2761.00,0.0405
2760.50,0.0404
2760.00,0.0404
2759.50,0.0403
2759.00,0.0403
2758.50,0.0403
2758.00,0.0402
2757.50,0.0402
2757.00,0.0402
2756.50,0.0401
2756.00,0.0401
2755.50,0.0401
2755.00,0.0400
2754.50,0.0400
2754.00,0.0400
2753.50,0.0400
2753.00,0.0399
2752.50,0.0399
2752.00,0.0399
2751.50,0.0398
2751.00,0.0398
2750.50,0.0397
2750.00,0.0397
2749.50,0.0397
2749.00,0.0396
2748.50,0.0396
2748.00,0.0395
2747.50,0.0395
2747.00,0.0395
2746.50,0.0395
2746.00,0.0395
2745.50,0.0395
2745.00,0.0395
2744.50,0.0395
2744.00,0.0395
2743.50,0.0394
2743.00,0.0394
2742.50,0.0394
2742.00,0.0394
2741.50,0.0393
2741.00,0.0393
2740.50,0.0393
2740.00,0.0393
2739.50,0.0393
2739.00,0.0392
2738.50,0.0392
2738.00,0.0392
2737.50,0.0391
2737.00,0.0391
2736.50,0.0391
2736.00,0.0391
2735.50,0.0391
2735.00,0.0391
2734.50,0.0391
2734.00,0.0391
2733.50,0.0391
2733.00,0.0391
2732.50,0.0391
2732.00,0.0391
2731.50,0.0391
2731.00,0.0391
2730.50,0.0391
2730.00,0.0390
2729.50,0.0390
2729.00,0.0390
2728.50,0.0390
2728.00,0.0389
2727.50,0.0389
2727.00,0.0389
2726.50,0.0388
2726.00,0.0388
2725.50,0.0389
2725.00,0.0389
2724.50,0.0389
2724.00,0.0389
2723.50,0.0389
2723.00,0.0389
2722.50,0.0389
2722.00,0.0389
2721.50,0.0389
2721.00,0.0389
2720.50,0.0389
2720.00,0.0389
2719.50,0.0389
2719.00,0.0389
2718.50,0.0389
2718.00,0.0389
2717.50,0.0389
2717.00,0.0389
2716.50,0.0389
2716.00,0.0389
2715.50,0.0389
2715.00,0.0389
2714.50,0.0389
2714.00,0.0389
2713.50,0.0389
2713.00,0.0389
2712.50,0.0389
2712.00,0.0389
2711.50,0.0388
2711.00,0.0388
2710.50,0.0388
2710.00,0.0388
2709.50,0.0388
2709.00,0.0388
2708.50,0.0388
2708.00,0.0389
2707.50,0.0389
2707.00,0.0389
2706.50,0.0389
2706.00,0.0388
2705.50,0.0388
2705.00,0.0388
2704.50,0.0388
2704.00,0.0388
2703.50,0.0388
2703.00,0.0388
2702.50,0.0388
2702.00,0.0388
2701.50,0.0388
2701.00,0.0388
2700.50,0.0388
2700.00,0.0388
2699.50,0.0388
2699.00,0.0387
2698.50,0.0387
2698.00,0.0387
2697.50,0.0387
2697.00,0.0387
2696.50,0.0387
2696.00,0.0387
2695.50,0.0387
2695.00,0.0387
2694.50,0.0387
2694.00,0.0387
2693.50,0.0387
2693.00,0.0387
2692.50,0.0387
2692.00,0.0387
2691.50,0.0387
2691.00,0.0387
2690.50,0.0387
2690.00,0.0387
2689.50,0.0387
2689.00,0.0387
2688.50,0.0387
2688.00,0.0387
2687.50,0.0387
2687.00,0.0387
2686.50,0.0387
2686.00,0.0387
2685.50,0.0387
2685.00,0.0387
2684.50,0.0387
2684.00,0.0387
2683.50,0.0387
2683.00,0.0388
2682.50,0.0388
2682.00,0.0388
2681.50,0.0388
2681.00,0.0388
2680.50,0.0388
2680.00,0.0388
2679.50,0.0389
2679.00,0.0389
2678.50,0.0389
2678.00,0.0389
2677.50,0.0389
2677.00,0.0390
2676.50,0.0391
2676.00,0.0391
2675.50,0.0392
2675.00,0.0392
2674.50,0.0392
2674.00,0.0392
2673.50,0.0393
2673.00,0.0393
2672.50,0.0394
2672.00,0.0394
2671.50,0.0395
2671.00,0.0395
2670.50,0.0395
2670.00,0.0396
2669.50,0.0396
2669.00,0.0397
2668.50,0.0397
2668.00,0.0397
2667.50,0.0398
2667.00,0.0398
2666.50,0.0398
2666.00,0.0398
2665.50,0.0399
2665.00,0.0399
2664.50,0.0399
2664.00,0.0399
2663.50,0.0399
2663.00,0.0399
2662.50,0.0399
2662.00,0.0399
2661.50,0.0399
2661.00,0.0399
2660.50,0.0399
2660.00,0.0398
2659.50,0.0398
2659.00,0.0398
2658.50,0.0398
2658.00,0.0397
2657.50,0.0397
2657.00,0.0397
2656.50,0.0396
2656.00,0.0396
2655.50,0.0396
2655.00,0.0395
2654.50,0.0395
2654.00,0.0394
2653.50,0.0394
2653.00,0.0393
2652.50,0.0393
2652.00,0.0393
2651.50,0.0392
2651.00,0.0392
2650.50,0.0391
2650.00,0.0391
2649.50,0.0390
2649.00,0.0389
2648.50,0.0389
2648.00,0.0388
2647.50,0.0388
2647.00,0.0387
2646.50,0.0387
2646.00,0.0387
2645.50,0.0386
2645.00,0.0386
2644.50,0.0385
2644.00,0.0385
2643.50,0.0385
2643.00,0.0384
2642.50,0.0384
2642.00,0.0383
2641.50,0.0383
2641.00,0.0382
2640.50,0.0382
2640.00,0.0382
2639.50,0.0381
2639.00,0.0381
2638.50,0.0381
2638.00,0.0380
2637.50,0.0380
2637.00,0.0380
2636.50,0.0380
2636.00,0.0380
2635.50,0.0379
2635.00,0.0379
2634.50,0.0379
2634.00,0.0378
2633.50,0.0378
2633.00,0.0378
2632.50,0.0378
2632.00,0.0378
2631.50,0.0378
2631.00,0.0377
2630.50,0.0377
2630.00,0.0377
2629.50,0.0377
2629.00,0.0377
2628.50,0.0376
2628.00,0.0376
2627.50,0.0376
2627.00,0.0376
2626.50,0.0375
2626.00,0.0375
2625.50,0.0375
2625.00,0.0375
2624.50,0.0375
2624.00,0.0375
2623.50,0.0375
2623.00,0.0375
2622.50,0.0375
2622.00,0.0374
2621.50,0.0374
2621.00,0.0374
2620.50,0.0374
2620.00,0.0374
2619.50,0.0374
2619.00,0.0374
2618.50,0.0374
2618.00,0.0374
2617.50,0.0374
2617.00,0.0374
2616.50,0.0374
2616.00,0.0374
2615.50,0.0374
2615.00,0.0373
2614.50,0.0373
2614.00,0.0373
2613.50,0.0373
2613.00,0.0373
2612.50,0.0373
2612.00,0.0373
2611.50,0.0373
2611.00,0.0373
2610.50,0.0373
2610.00,0.0373
2609.50,0.0373
2609.00,0.0372
2608.50,0.0372
2608.00,0.0372
2607.50,0.0372
2607.00,0.0372
2606.50,0.0372
2606.00,0.0372
2605.50,0.0372
2605.00,0.0372
2604.50,0.0372
2604.00,0.0372
2603.50,0.0372
2603.00,0.0371
2602.50,0.0371
2602.00,0.0371
2601.50,0.0371
2601.00,0.0371
2600.50,0.0371
2600.00,0.0371
2599.50,0.0371
2599.00,0.0371
2598.50,0.0371
2598.00,0.0371
2597.50,0.0371
2597.00,0.0371
2596.50,0.0371
2596.00,0.0371
2595.50,0.0371
2595.00,0.0371
2594.50,0.0370
2594.00,0.0370
2593.50,0.0370
2593.00,0.0370
2592.50,0.0370
2592.00,0.0370
2591.50,0.0370
2591.00,0.0370
2590.50,0.0370
2590.00,0.0370
2589.50,0.0370
2589.00,0.0370
2588.50,0.0370
2588.00,0.0370
2587.50,0.0370
2587.00,0.0370
2586.50,0.0370
2586.00,0.0370
2585.50,0.0370
2585.00,0.0370
2584.50,0.0370
2584.00,0.0370
2583.50,0.0370
2583.00,0.0370
2582.50,0.0370
2582.00,0.0370
2581.50,0.0370
2581.00,0.0369
2580.50,0.0369
2580.00,0.0369
2579.50,0.0369
2579.00,0.0369
2578.50,0.0369
2578.00,0.0369
2577.50,0.0369
2577.00,0.0369
2576.50,0.0369
2576.00,0.0369
2575.50,0.0369
2575.00,0.0369
2574.50,0.0369
2574.00,0.0369
2573.50,0.0369
2573.00,0.0369
2572.50,0.0369
2572.00,0.0368
2571.50,0.0368
2571.00,0.0368
2570.50,0.0368
2570.00,0.0368
2569.50,0.0368
2569.00,0.0368
2568.50,0.0368
2568.00,0.0368
2567.50,0.0368
2567.00,0.0368
2566.50,0.0368
2566.00,0.0368
2565.50,0.0368
2565.00,0.0368
2564.50,0.0368
2564.00,0.0368
2563.50,0.0368
2563.00,0.0368
2562.50,0.0368
2562.00,0.0368
2561.50,0.0368
2561.00,0.0368
2560.50,0.0368
2560.00,0.0368
2559.50,0.0368
2559.00,0.0368
2558.50,0.0368
2558.00,0.0368
2557.50,0.0368
2557.00,0.0368
2556.50,0.0368
2556.00,0.0368
2555.50,0.0368
2555.00,0.0368
2554.50,0.0368
2554.00,0.0368
2553.50,0.0368
2553.00,0.0367
2552.50,0.0367
2552.00,0.0367
2551.50,0.0367
2551.00,0.0367
2550.50,0.0367
2550.00,0.0367
2549.50,0.0367
2549.00,0.0367
2548.50,0.0367
2548.00,0.0367
2547.50,0.0367
2547.00,0.0367
2546.50,0.0367
2546.00,0.0367
2545.50,0.0367
2545.00,0.0367
2544.50,0.0366
2544.00,0.0366
2543.50,0.0366
2543.00,0.0366
2542.50,0.0366
2542.00,0.0366
2541.50,0.0366
2541.00,0.0365
2540.50,0.0365
2540.00,0.0365
2539.50,0.0365
2539.00,0.0365
2538.50,0.0365
2538.00,0.0365
2537.50,0.0365
2537.00,0.0365
2536.50,0.0365
2536.00,0.0365
2535.50,0.0365
2535.00,0.0364
2534.50,0.0364
2534.00,0.0364
2533.50,0.0364
2533.00,0.0364
2532.50,0.0364
2532.00,0.0364
2531.50,0.0364
2531.00,0.0364
2530.50,0.0364
2530.00,0.0364
2529.50,0.0364
2529.00,0.0364
2528.50,0.0364
2528.00,0.0364
2527.50,0.0364
2527.00,0.0364
2526.50,0.0365
2526.00,0.0365
2525.50,0.0365
2525.00,0.0365
2524.50,0.0365
2524.00,0.0365
2523.50,0.0365
2523.00,0.0365
2522.50,0.0365
2522.00,0.0365
2521.50,0.0365
2521.00,0.0366
2520.50,0.0366
2520.00,0.0366
2519.50,0.0366
2519.00,0.0366
2518.50,0.0366
2518.00,0.0366
2517.50,0.0366
2517.00,0.0366
2516.50,0.0367
2516.00,0.0367
2515.50,0.0367
2515.00,0.0367
2514.50,0.0367
2514.00,0.0368
2513.50,0.0368
2513.00,0.0368
2512.50,0.0369
2512.00,0.0369
2511.50,0.0369
2511.00,0.0370
2510.50,0.0370
2510.00,0.0371
2509.50,0.0372
2509.00,0.0372
2508.50,0.0373
2508.00,0.0374
2507.50,0.0375
2507.00,0.0375
2506.50,0.0376
2506.00,0.0377
2505.50,0.0379
2505.00,0.0380
2504.50,0.0381
2504.00,0.0382
2503.50,0.0384
2503.00,0.0385
2502.50,0.0386
2502.00,0.0387
2501.50,0.0388
2501.00,0.0389
2500.50,0.0390
2500.00,0.0391
2499.50,0.0391
2499.00,0.0391
2498.50,0.0391
2498.00,0.0391
2497.50,0.0391
2497.00,0.0390
2496.50,0.0389
2496.00,0.0389
2495.50,0.0388
2495.00,0.0387
2494.50,0.0387
2494.00,0.0386
2493.50,0.0385
2493.00,0.0384
2492.50,0.0383
2492.00,0.0382
2491.50,0.0382
2491.00,0.0381
2490.50,0.0380
2490.00,0.0379
2489.50,0.0378
2489.00,0.0378
2488.50,0.0377
2488.00,0.0376
2487.50,0.0376
2487.00,0.0375
2486.50,0.0375
2486.00,0.0374
2485.50,0.0374
2485.00,0.0373
2484.50,0.0373
2484.00,0.0372
2483.50,0.0372
2483.00,0.0371
2482.50,0.0371
2482.00,0.0371
2481.50,0.0371
2481.00,0.0370
2480.50,0.0370
2480.00,0.0370
2479.50,0.0370
2479.00,0.0369
2478.50,0.0369
2478.00,0.0369
2477.50,0.0369
2477.00,0.0369
2476.50,0.0369
2476.00,0.0368
2475.50,0.0368
2475.00,0.0368
2474.50,0.0368
2474.00,0.0368
2473.50,0.0368
2473.00,0.0367
2472.50,0.0367
2472.00,0.0367
2471.50,0.0367
2471.00,0.0367
2470.50,0.0367
2470.00,0.0367
2469.50,0.0367
2469.00,0.0367
2468.50,0.0367
2468.00,0.0367
2467.50,0.0367
2467.00,0.0367
2466.50,0.0367
2466.00,0.0367
2465.50,0.0367
2465.00,0.0367
2464.50,0.0367
2464.00,0.0366
2463.50,0.0366
2463.00,0.0366
2462.50,0.0366
2462.00,0.0366
2461.50,0.0366
2461.00,0.0366
2460.50,0.0366
2460.00,0.0366
2459.50,0.0366
2459.00,0.0366
2458.50,0.0365
2458.00,0.0365
2457.50,0.0365
2457.00,0.0365
2456.50,0.0365
2456.00,0.0365
2455.50,0.0365
2455.00,0.0365
2454.50,0.0365
2454.00,0.0365
2453.50,0.0364
2453.00,0.0364
2452.50,0.0364
2452.00,0.0364
2451.50,0.0365
2451.00,0.0365
2450.50,0.0364
2450.00,0.0364
2449.50,0.0364
2449.00,0.0364
2448.50,0.0364
2448.00,0.0364
2447.50,0.0364
2447.00,0.0364
2446.50,0.0364
2446.00,0.0364
2445.50,0.0364
2445.00,0.0364
2444.50,0.0364
2444.00,0.0364
2443.50,0.0364
2443.00,0.0364
2442.50,0.0364
2442.00,0.0364
2441.50,0.0364
2441.00,0.0364
2440.50,0.0364
2440.00,0.0364
2439.50,0.0364
2439.00,0.0364
2438.50,0.0364
2438.00,0.0364
2437.50,0.0364
2437.00,0.0364
2436.50,0.0364
2436.00,0.0364
2435.50,0.0364
2435.00,0.0364
2434.50,0.0363
2434.00,0.0363
2433.50,0.0363
2433.00,0.0363
2432.50,0.0363
2432.00,0.0363
2431.50,0.0363
2431.00,0.0363
2430.50,0.0363
2430.00,0.0363
2429.50,0.0363
2429.00,0.0363
2428.50,0.0363
2428.00,0.0363
2427.50,0.0363
2427.00,0.0363
2426.50,0.0362
2426.00,0.0362
2425.50,0.0362
2425.00,0.0362
2424.50,0.0362
2424.00,0.0362
2423.50,0.0362
2423.00,0.0362
2422.50,0.0362
2422.00,0.0362
2421.50,0.0362
2421.00,0.0362
2420.50,0.0362
2420.00,0.0362
2419.50,0.0362
2419.00,0.0362
2418.50,0.0362
2418.00,0.0362
2417.50,0.0362
2417.00,0.0362
2416.50,0.0362
2416.00,0.0362
2415.50,0.0362
2415.00,0.0362
2414.50,0.0362
2414.00,0.0362
2413.50,0.0362
2413.00,0.0362
2412.50,0.0362
2412.00,0.0362
2411.50,0.0362
2411.00,0.0362
2410.50,0.0362
2410.00,0.0362
2409.50,0.0362
2409.00,0.0362
2408.50,0.0362
2408.00,0.0362
2407.50,0.0362
2407.00,0.0362
2406.50,0.0362
2406.00,0.0362
2405.50,0.0362
2405.00,0.0362
2404.50,0.0362
2404.00,0.0362
2403.50,0.0362
2403.00,0.0362
2402.50,0.0362
2402.00,0.0362
2401.50,0.0362
2401.00,0.0361
2400.50,0.0361
2400.00,0.0361
2399.50,0.0361
2399.00,0.0361
2398.50,0.0361
2398.00,0.0361
2397.50,0.0361
2397.00,0.0361
2396.50,0.0361
2396.00,0.0361
2395.50,0.0361
2395.00,0.0361
2394.50,0.0361
2394.00,0.0361
2393.50,0.0361
2393.00,0.0361
2392.50,0.0361
2392.00,0.0361
2391.50,0.0361
2391.00,0.0361
2390.50,0.0361
2390.00,0.0361
2389.50,0.0361
2389.00,0.0361
2388.50,0.0361
2388.00,0.0361
2387.50,0.0361
2387.00,0.0361
2386.50,0.0361
2386.00,0.0361
2385.50,0.0361
2385.00,0.0361
2384.50,0.0361
2384.00,0.0361
2383.50,0.0361
2383.00,0.0361
2382.50,0.0361
2382.00,0.0361
2381.50,0.0361
2381.00,0.0361
2380.50,0.0361
2380.00,0.0361
2379.50,0.0362
2379.00,0.0362
2378.50,0.0363
2378.00,0.0363
2377.50,0.0363
2377.00,0.0364
2376.50,0.0364
2376.00,0.0364
2375.50,0.0364
2375.00,0.0364
2374.50,0.0364
2374.00,0.0364
2373.50,0.0364
2373.00,0.0364
2372.50,0.0364
2372.00,0.0364
2371.50,0.0364
2371.00,0.0363
2370.50,0.0363
2370.00,0.0363
2369.50,0.0363
2369.00,0.0363
2368.50,0.0363
2368.00,0.0364
2367.50,0.0364
2367.00,0.0364
2366.50,0.0364
2366.00,0.0364
2365.50,0.0364
2365.00,0.0364
2364.50,0.0364
2364.00,0.0365
2363.50,0.0365
2363.00,0.0365
2362.50,0.0365
2362.00,0.0365
2361.50,0.0364
2361.00,0.0364
2360.50,0.0363
2360.00,0.0364
2359.50,0.0364
2359.00,0.0364
2358.50,0.0364
2358.00,0.0363
2357.50,0.0363
2357.00,0.0363
2356.50,0.0363
2356.00,0.0363
2355.50,0.0364
2355.00,0.0364
2354.50,0.0364
2354.00,0.0364
2353.50,0.0364
2353.00,0.0364
2352.50,0.0364
2352.00,0.0365
2351.50,0.0364
2351.00,0.0363
2350.50,0.0362
2350.00,0.0362
2349.50,0.0362
2349.00,0.0363
2348.50,0.0364
2348.00,0.0364
2347.50,0.0365
2347.00,0.0365
2346.50,0.0365
2346.00,0.0365
2345.50,0.0365
2345.00,0.0364
2344.50,0.0364
2344.00,0.0363
2343.50,0.0362
2343.00,0.0362
2342.50,0.0362
2342.00,0.0363
2341.50,0.0363
2341.00,0.0363
2340.50,0.0364
2340.00,0.0365
2339.50,0.0365
2339.00,0.0364
2338.50,0.0365
2338.00,0.0365
2337.50,0.0365
2337.00,0.0364
2336.50,0.0365
2336.00,0.0365
2335.50,0.0364
2335.00,0.0364
2334.50,0.0365
2334.00,0.0365
2333.50,0.0365
2333.00,0.0364
2332.50,0.0365
2332.00,0.0365
2331.50,0.0364
2331.00,0.0364
2330.50,0.0364
2330.00,0.0364
2329.50,0.0364
2329.00,0.0363
2328.50,0.0363
2328.00,0.0363
2327.50,0.0363
2327.00,0.0362
2326.50,0.0363
2326.00,0.0363
2325.50,0.0363
2325.00,0.0362
2324.50,0.0362
2324.00,0.0363
2323.50,0.0363
2323.00,0.0362
2322.50,0.0362
2322.00,0.0362
2321.50,0.0362
2321.00,0.0362
2320.50,0.0362
2320.00,0.0362
2319.50,0.0362
2319.00,0.0362
2318.50,0.0362
2318.00,0.0362
2317.50,0.0362
2317.00,0.0361
2316.50,0.0361
2316.00,0.0362
2315.50,0.0362
2315.00,0.0362
2314.50,0.0362
2314.00,0.0362
2313.50,0.0362
2313.00,0.0362
2312.50,0.0361
2312.00,0.0361
2311.50,0.0362
2311.00,0.0361
2310.50,0.0361
2310.00,0.0361
2309.50,0.0361
2309.00,0.0361
2308.50,0.0361
2308.00,0.0361
2307.50,0.0361
2307.00,0.0361
2306.50,0.0361
2306.00,0.0361
2305.50,0.0362
2305.00,0.0362
2304.50,0.0361
2304.00,0.0361
2303.50,0.0362
2303.00,0.0362
2302.50,0.0362
2302.00,0.0361
2301.50,0.0362
2301.00,0.0362
2300.50,0.0362
2300.00,0.0362
2299.50,0.0362
2299.00,0.0363
2298.50,0.0362
2298.00,0.0362
2297.50,0.0362
2297.00,0.0363
2296.50,0.0363
2296.00,0.0363
2295.50,0.0363
2295.00,0.0363
2294.50,0.0363
2294.00,0.0363
2293.50,0.0363
2293.00,0.0363
2292.50,0.0364
2292.00,0.0364
2291.50,0.0364
2291.00,0.0364
2290.50,0.0364
2290.00,0.0364
2289.50,0.0364
2289.00,0.0364
2288.50,0.0364
2288.00,0.0364
2287.50,0.0364
2287.00,0.0364
2286.50,0.0364
2286.00,0.0364
2285.50,0.0365
2285.00,0.0365
2284.50,0.0365
2284.00,0.0365
2283.50,0.0365
2283.00,0.0365
2282.50,0.0365
2282.00,0.0365
2281.50,0.0365
2281.00,0.0365
2280.50,0.0365
2280.00,0.0365
2279.50,0.0365
2279.00,0.0365
2278.50,0.0366
2278.00,0.0366
2277.50,0.0366
2277.00,0.0366
2276.50,0.0366
2276.00,0.0366
2275.50,0.0366
2275.00,0.0366
2274.50,0.0366
2274.00,0.0366
2273.50,0.0366
2273.00,0.0366
2272.50,0.0366
2272.00,0.0366
2271.50,0.0367
2271.00,0.0367
2270.50,0.0367
2270.00,0.0367
2269.50,0.0367
2269.00,0.0367
2268.50,0.0367
2268.00,0.0366
2267.50,0.0367
2267.00,0.0367
2266.50,0.0367
2266.00,0.0367
2265.50,0.0367
2265.00,0.0367
2264.50,0.0367
2264.00,0.0367
2263.50,0.0367
2263.00,0.0367
2262.50,0.0367
2262.00,0.0367
2261.50,0.0367
2261.00,0.0367
2260.50,0.0367
2260.00,0.0367
2259.50,0.0367
2259.00,0.0367
2258.50,0.0367
2258.00,0.0367
2257.50,0.0367
2257.00,0.0367
2256.50,0.0367
2256.00,0.0367
2255.50,0.0367
2255.00,0.0367
2254.50,0.0367
2254.00,0.0367
2253.50,0.0367
2253.00,0.0367
2252.50,0.0367
2252.00,0.0367
2251.50,0.0367
2251.00,0.0367
2250.50,0.0367
2250.00,0.0367
2249.50,0.0367
2249.00,0.0367
2248.50,0.0367
2248.00,0.0368
2247.50,0.0368
2247.00,0.0368
2246.50,0.0368
2246.00,0.0368
2245.50,0.0368
2245.00,0.0368
2244.50,0.0368
2244.00,0.0368
2243.50,0.0369
2243.00,0.0369
2242.50,0.0369
2242.00,0.0369
2241.50,0.0369
2241.00,0.0369
2240.50,0.0369
2240.00,0.0369
2239.50,0.0370
2239.00,0.0370
2238.50,0.0370
2238.00,0.0370
2237.50,0.0370
2237.00,0.0370
2236.50,0.0371
2236.00,0.0371
2235.50,0.0371
2235.00,0.0371
2234.50,0.0371
2234.00,0.0371
2233.50,0.0372
2233.00,0.0372
2232.50,0.0372
2232.00,0.0372
2231.50,0.0372
2231.00,0.0373
2230.50,0.0373
2230.00,0.0373
2229.50,0.0373
2229.00,0.0373
2228.50,0.0373
2228.00,0.0374
2227.50,0.0374
2227.00,0.0374
2226.50,0.0375
2226.00,0.0375
2225.50,0.0375
2225.00,0.0375
2224.50,0.0376
2224.00,0.0376
2223.50,0.0376
2223.00,0.0376
2222.50,0.0377
2222.00,0.0377
2221.50,0.0378
2221.00,0.0378
2220.50,0.0378
2220.00,0.0379
2219.50,0.0379
2219.00,0.0379
2218.50,0.0380
2218.00,0.0380
2217.50,0.0381
2217.00,0.0381
2216.50,0.0382
2216.00,0.0382
2215.50,0.0382
2215.00,0.0383
2214.50,0.0384
2214.00,0.0384
2213.50,0.0385
2213.00,0.0385
2212.50,0.0386
2212.00,0.0386
2211.50,0.0387
2211.00,0.0387
2210.50,0.0388
2210.00,0.0389
2209.50,0.0389
2209.00,0.0390
2208.50,0.0391
2208.00,0.0391
2207.50,0.0392
2207.00,0.0393
2206.50,0.0394
2206.00,0.0395
2205.50,0.0396
2205.00,0.0396
2204.50,0.0397
2204.00,0.0398
2203.50,0.0399
2203.00,0.0400
2202.50,0.0401
2202.00,0.0402
2201.50,0.0403
2201.00,0.0404
2200.50,0.0406
2200.00,0.0407
2199.50,0.0408
2199.00,0.0409
2198.50,0.0411
2198.00,0.0412
2197.50,0.0413
2197.00,0.0415
2196.50,0.0416
2196.00,0.0418
2195.50,0.0420
2195.00,0.0421
2194.50,0.0423
2194.00,0.0425
2193.50,0.0427
2193.00,0.0429
2192.50,0.0431
2192.00,0.0433
2191.50,0.0436
2191.00,0.0438
2190.50,0.0440
2190.00,0.0443
2189.50,0.0445
2189.00,0.0448
2188.50,0.0451
2188.00,0.0453
2187.50,0.0456
2187.00,0.0459
2186.50,0.0462
2186.00,0.0465
2185.50,0.0469
2185.00,0.0472
2184.50,0.0476
2184.00,0.0479
2183.50,0.0483
2183.00,0.0486
2182.50,0.0490
2182.00,0.0494
2181.50,0.0498
2181.00,0.0502
2180.50,0.0506
2180.00,0.0510
2179.50,0.0514
2179.00,0.0519
2178.50,0.0523
2178.00,0.0527
2177.50,0.0531
2177.00,0.0536
2176.50,0.0540
2176.00,0.0544
2175.50,0.0548
2175.00,0.0553
2174.50,0.0557
2174.00,0.0561
2173.50,0.0565
2173.00,0.0569
2172.50,0.0573
2172.00,0.0577
2171.50,0.0581
2171.00,0.0584
2170.50,0.0588
2170.00,0.0591
2169.50,0.0594
2169.00,0.0597
2168.50,0.0600
2168.00,0.0602
2167.50,0.0605
2167.00,0.0607
2166.50,0.0609
2166.00,0.0611
2165.50,0.0613
2165.00,0.0614
2164.50,0.0615
2164.00,0.0616
2163.50,0.0617
2163.00,0.0617
2162.50,0.0617
2162.00,0.0617
2161.50,0.0616
2161.00,0.0616
2160.50,0.0615
2160.00,0.0614
2159.50,0.0613
2159.00,0.0611
2158.50,0.0609
2158.00,0.0607
2157.50,0.0605
2157.00,0.0603
2156.50,0.0600
2156.00,0.0597
2155.50,0.0594
2155.00,0.0591
2154.50,0.0588
2154.00,0.0584
2153.50,0.0580
2153.00,0.0577
2152.50,0.0573
2152.00,0.0569
2151.50,0.0565
2151.00,0.0561
2150.50,0.0557
2150.00,0.0553
2149.50,0.0548
2149.00,0.0544
2148.50,0.0540
2148.00,0.0536
2147.50,0.0531
2147.00,0.0527
2146.50,0.0523
2146.00,0.0519
2145.50,0.0514
2145.00,0.0510
2144.50,0.0506
2144.00,0.0502
2143.50,0.0498
2143.00,0.0494
2142.50,0.0491
2142.00,0.0487
2141.50,0.0483
2141.00,0.0480
2140.50,0.0476
2140.00,0.0473
2139.50,0.0469
2139.00,0.0466
2138.50,0.0463
2138.00,0.0460
2137.50,0.0457
2137.00,0.0454
2136.50,0.0452
2136.00,0.0449
2135.50,0.0446
2135.00,0.0444
2134.50,0.0442
2134.00,0.0439
2133.50,0.0437
2133.00,0.0435
2132.50,0.0433
2132.00,0.0431
2131.50,0.0429
2131.00,0.0427
2130.50,0.0426
2130.00,0.0424
2129.50,0.0422
2129.00,0.0421
2128.50,0.0419
2128.00,0.0418
2127.50,0.0417
2127.00,0.0415
2126.50,0.0414
2126.00,0.0413
2125.50,0.0412
2125.00,0.0411
2124.50,0.0410
2124.00,0.0409
2123.50,0.0408
2123.00,0.0407
2122.50,0.0406
2122.00,0.0405
2121.50,0.0405
2121.00,0.0404
2120.50,0.0403
2120.00,0.0402
2119.50,0.0402
2119.00,0.0401
2118.50,0.0400
2118.00,0.0400
2117.50,0.0399
2117.00,0.0398
2116.50,0.0398
2116.00,0.0397
2115.50,0.0397
2115.00,0.0396
2114.50,0.0396
2114.00,0.0395
2113.50,0.0395
2113.00,0.0395
2112.50,0.0394
2112.00,0.0394
2111.50,0.0394
2111.00,0.0393
2110.50,0.0393
2110.00,0.0393
2109.50,0.0392
2109.00,0.0392
2108.50,0.0392
2108.00,0.0392
2107.50,0.0391
2107.00,0.0391
2106.50,0.0391
2106.00,0.0391
2105.50,0.0390
2105.00,0.0390
2104.50,0.0390
2104.00,0.0390
2103.50,0.0390
2103.00,0.0390
2102.50,0.0389
2102.00,0.0389
2101.50,0.0389
2101.00,0.0389
2100.50,0.0389
2100.00,0.0389
2099.50,0.0388
2099.00,0.0388
2098.50,0.0388
2098.00,0.0388
2097.50,0.0388
2097.00,0.0388
2096.50,0.0387
2096.00,0.0387
2095.50,0.0387
2095.00,0.0387
2094.50,0.0387
2094.00,0.0387
2093.50,0.0387
2093.00,0.0386
2092.50,0.0386
2092.00,0.0386
2091.50,0.0386
2091.00,0.0386
2090.50,0.0386
2090.00,0.0386
2089.50,0.0386
2089.00,0.0386
2088.50,0.0386
2088.00,0.0386
2087.50,0.0386
2087.00,0.0386
2086.50,0.0386
2086.00,0.0386
2085.50,0.0386
2085.00,0.0386
2084.50,0.0386
2084.00,0.0386
2083.50,0.0386
2083.00,0.0386
2082.50,0.0386
2082.00,0.0386
2081.50,0.0386
2081.00,0.0386
2080.50,0.0386
2080.00,0.0386
2079.50,0.0386
2079.00,0.0386
2078.50,0.0386
2078.00,0.0386
2077.50,0.0386
2077.00,0.0386
2076.50,0.0386
2076.00,0.0387
2075.50,0.0387
2075.00,0.0387
2074.50,0.0387
2074.00,0.0387
2073.50,0.0387
2073.00,0.0387
2072.50,0.0388
2072.00,0.0388
2071.50,0.0388
2071.00,0.0388
2070.50,0.0388
2070.00,0.0389
2069.50,0.0389
2069.00,0.0389
2068.50,0.0389
2068.00,0.0390
2067.50,0.0390
2067.00,0.0390
2066.50,0.0390
2066.00,0.0390
2065.50,0.0391
2065.00,0.0391
2064.50,0.0391
2064.00,0.0391
2063.50,0.0392
2063.00,0.0392
2062.50,0.0392
2062.00,0.0393
2061.50,0.0393
2061.00,0.0393
2060.50,0.0393
2060.00,0.0394
2059.50,0.0394
2059.00,0.0394
2058.50,0.0394
2058.00,0.0395
2057.50,0.0395
2057.00,0.0395
2056.50,0.0395
2056.00,0.0396
2055.50,0.0396
2055.00,0.0396
2054.50,0.0396
2054.00,0.0396
2053.50,0.0396
2053.00,0.0397
2052.50,0.0397
2052.00,0.0397
2051.50,0.0397
2051.00,0.0397
2050.50,0.0397
2050.00,0.0396
2049.50,0.0396
2049.00,0.0396
2048.50,0.0395
2048.00,0.0395
2047.50,0.0394
2047.00,0.0394
2046.50,0.0393
2046.00,0.0393
2045.50,0.0392
2045.00,0.0391
2044.50,0.0390
2044.00,0.0389
2043.50,0.0389
2043.00,0.0388
2042.50,0.0387
2042.00,0.0386
2041.50,0.0385
2041.00,0.0384
2040.50,0.0383
2040.00,0.0383
2039.50,0.0382
2039.00,0.0381
2038.50,0.0381
2038.00,0.0380
2037.50,0.0379
2037.00,0.0379
2036.50,0.0378
2036.00,0.0378
2035.50,0.0377
2035.00,0.0377
2034.50,0.0377
2034.00,0.0376
2033.50,0.0376
2033.00,0.0376
2032.50,0.0376
2032.00,0.0375
2031.50,0.0375
2031.00,0.0375
2030.50,0.0375
2030.00,0.0375
2029.50,0.0375
2029.00,0.0375
2028.50,0.0375
2028.00,0.0375
2027.50,0.0375
2027.00,0.0375
2026.50,0.0375
2026.00,0.0375
2025.50,0.0375
2025.00,0.0375
2024.50,0.0376
2024.00,0.0376
2023.50,0.0376
2023.00,0.0376
2022.50,0.0377
2022.00,0.0377
2021.50,0.0377
2021.00,0.0378
2020.50,0.0378
2020.00,0.0378
2019.50,0.0379
2019.00,0.0379
2018.50,0.0379
2018.00,0.0380
2017.50,0.0380
2017.00,0.0380
2016.50,0.0381
2016.00,0.0381
2015.50,0.0382
2015.00,0.0382
2014.50,0.0383
2014.00,0.0383
2013.50,0.0384
2013.00,0.0384
2012.50,0.0385
2012.00,0.0385
2011.50,0.0386
2011.00,0.0386
2010.50,0.0387
2010.00,0.0387
2009.50,0.0387
2009.00,0.0388
2008.50,0.0388
2008.00,0.0389
2007.50,0.0389
2007.00,0.0389
2006.50,0.0389
2006.00,0.0390
2005.50,0.0390
2005.00,0.0390
2004.50,0.0390
2004.00,0.0391
2003.50,0.0391
2003.00,0.0391
2002.50,0.0391
2002.00,0.0392
2001.50,0.0392
2001.00,0.0392
2000.50,0.0392
2000.00,0.0392
1999.50,0.0393
1999.00,0.0393
1998.50,0.0393
1998.00,0.0393
1997.50,0.0393
1997.00,0.0393
1996.50,0.0393
1996.00,0.0393
1995.50,0.0393
1995.00,0.0393
1994.50,0.0393
1994.00,0.0393
1993.50,0.0393
1993.00,0.0393
1992.50,0.0392
1992.00,0.0392
1991.50,0.0392
1991.00,0.0392
1990.50,0.0393
1990.00,0.0393
1989.50,0.0393
1989.00,0.0393
1988.50,0.0393
1988.00,0.0394
1987.50,0.0394
1987.00,0.0394
1986.50,0.0395
1986.00,0.0395
1985.50,0.0396
1985.00,0.0396
1984.50,0.0396
1984.00,0.0397
1983.50,0.0397
1983.00,0.0398
1982.50,0.0399
1982.00,0.0399
1981.50,0.0400
1981.00,0.0400
1980.50,0.0401
1980.00,0.0402
1979.50,0.0403
1979.00,0.0403
1978.50,0.0404
1978.00,0.0405
1977.50,0.0406
1977.00,0.0406
1976.50,0.0407
1976.00,0.0408
1975.50,0.0409
1975.00,0.0410
1974.50,0.0411
1974.00,0.0412
1973.50,0.0413
1973.00,0.0415
1972.50,0.0416
1972.00,0.0417
1971.50,0.0418
1971.00,0.0419
1970.50,0.0420
1970.00,0.0421
1969.50,0.0423
1969.00,0.0424
1968.50,0.0425
1968.00,0.0426
1967.50,0.0427
1967.00,0.0428
1966.50,0.0429
1966.00,0.0430
1965.50,0.0431
1965.00,0.0432
1964.50,0.0433
1964.00,0.0434
1963.50,0.0435
1963.00,0.0436
1962.50,0.0437
1962.00,0.0438
1961.50,0.0439
1961.00,0.0440
1960.50,0.0441
1960.00,0.0442
1959.50,0.0443
1959.00,0.0443
1958.50,0.0444
1958.00,0.0445
1957.50,0.0446
1957.00,0.0447
1956.50,0.0448
1956.00,0.0449
1955.50,0.0450
1955.00,0.0451
1954.50,0.0452
1954.00,0.0453
1953.50,0.0454
1953.00,0.0455
1952.50,0.0457
1952.00,0.0458
1951.50,0.0459
1951.00,0.0460
1950.50,0.0461
1950.00,0.0463
1949.50,0.0464
1949.00,0.0465
1948.50,0.0466
1948.00,0.0467
1947.50,0.0468
1947.00,0.0469
1946.50,0.0470
1946.00,0.0470
1945.50,0.0471
1945.00,0.0471
1944.50,0.0471
1944.00,0.0472
1943.50,0.0471
1943.00,0.0471
1942.50,0.0470
1942.00,0.0470
1941.50,0.0469
1941.00,0.0468
1940.50,0.0467
1940.00,0.0465
1939.50,0.0464
1939.00,0.0462
1938.50,0.0460
1938.00,0.0458
1937.50,0.0457
1937.00,0.0455
1936.50,0.0453
1936.00,0.0451
1935.50,0.0449
1935.00,0.0447
1934.50,0.0446
1934.00,0.0444
1933.50,0.0443
1933.00,0.0441
1932.50,0.0440
1932.00,0.0438
1931.50,0.0437
1931.00,0.0436
1930.50,0.0435
1930.00,0.0434
1929.50,0.0433
1929.00,0.0432
1928.50,0.0431
1928.00,0.0430
1927.50,0.0430
1927.00,0.0429
1926.50,0.0429
1926.00,0.0428
1925.50,0.0428
1925.00,0.0427
1924.50,0.0427
1924.00,0.0426
1923.50,0.0426
1923.00,0.0425
1922.50,0.0424
1922.00,0.0424
1921.50,0.0424
1921.00,0.0424
1920.50,0.0423
1920.00,0.0423
1919.50,0.0422
1919.00,0.0422
1918.50,0.0422
1918.00,0.0421
1917.50,0.0420
1917.00,0.0420
1916.50,0.0419
1916.00,0.0418
1915.50,0.0418
1915.00,0.0417
1914.50,0.0416
1914.00,0.0416
1913.50,0.0415
1913.00,0.0415
1912.50,0.0414
1912.00,0.0413
1911.50,0.0412
1911.00,0.0411
1910.50,0.0410
1910.00,0.0409
1909.50,0.0409
1909.00,0.0408
1908.50,0.0408
1908.00,0.0407
1907.50,0.0406
1907.00,0.0406
1906.50,0.0406
1906.00,0.0405
1905.50,0.0405
1905.00,0.0404
1904.50,0.0404
1904.00,0.0403
1903.50,0.0403
1903.00,0.0402
1902.50,0.0402
1902.00,0.0402
1901.50,0.0402
1901.00,0.0401
1900.50,0.0401
1900.00,0.0401
1899.50,0.0401
1899.00,0.0401
1898.50,0.0401
1898.00,0.0400
1897.50,0.0400
1897.00,0.0400
1896.50,0.0400
1896.00,0.0400
1895.50,0.0400
1895.00,0.0400
1894.50,0.0400
1894.00,0.0400
1893.50,0.0400
1893.00,0.0400
1892.50,0.0400
1892.00,0.0400
1891.50,0.0400
1891.00,0.0400
1890.50,0.0400
1890.00,0.0400
1889.50,0.0400
1889.00,0.0400
1888.50,0.0400
1888.00,0.0400
1887.50,0.0400
1887.00,0.0400
1886.50,0.0400
1886.00,0.0400
1885.50,0.0400
1885.00,0.0400
1884.50,0.0400
1884.00,0.0400
1883.50,0.0400
1883.00,0.0400
1882.50,0.0400
1882.00,0.0400
1881.50,0.0400
1881.00,0.0400
1880.50,0.0400
1880.00,0.0401
1879.50,0.0401
1879.00,0.0401
1878.50,0.0401
1878.00,0.0401
1877.50,0.0401
1877.00,0.0401
1876.50,0.0401
1876.00,0.0401
1875.50,0.0401
1875.00,0.0401
1874.50,0.0401
1874.00,0.0401
1873.50,0.0401
1873.00,0.0401
1872.50,0.0401
1872.00,0.0401
1871.50,0.0401
1871.00,0.0401
1870.50,0.0401
1870.00,0.0401
1869.50,0.0401
1869.00,0.0401
1868.50,0.0401
1868.00,0.0401
1867.50,0.0400
1867.00,0.0400
1866.50,0.0400
1866.00,0.0400
1865.50,0.0401
1865.00,0.0401
1864.50,0.0401
1864.00,0.0401
1863.50,0.0401
1863.00,0.0401
1862.50,0.0401
1862.00,0.0401
1861.50,0.0401
1861.00,0.0401
1860.50,0.0401
1860.00,0.0401
1859.50,0.0401
1859.00,0.0401
1858.50,0.0401
1858.00,0.0401
1857.50,0.0401
1857.00,0.0401
1856.50,0.0401
1856.00,0.0401
1855.50,0.0401
1855.00,0.0401
1854.50,0.0401
1854.00,0.0401
1853.50,0.0401
1853.00,0.0401
1852.50,0.0401
1852.00,0.0401
1851.50,0.0401
1851.00,0.0401
1850.50,0.0401
1850.00,0.0401
1849.50,0.0401
1849.00,0.0401
1848.50,0.0401
1848.00,0.0401
1847.50,0.0400
1847.00,0.0400
1846.50,0.0400
1846.00,0.0400
1845.50,0.0400
1845.00,0.0400
1844.50,0.0400
1844.00,0.0400
1843.50,0.0400
1843.00,0.0400
1842.50,0.0400
1842.00,0.0399
1841.50,0.0399
1841.00,0.0399
1840.50,0.0399
1840.00,0.0399
1839.50,0.0400
1839.00,0.0400
1838.50,0.0400
1838.00,0.0400
1837.50,0.0400
1837.00,0.0399
1836.50,0.0399
1836.00,0.0399
1835.50,0.0399
1835.00,0.0399
1834.50,0.0400
1834.00,0.0400
1833.50,0.0400
1833.00,0.0400
1832.50,0.0400
1832.00,0.0400
1831.50,0.0400
1831.00,0.0399
1830.50,0.0399
1830.00,0.0399
1829.50,0.0399
1829.00,0.0399
1828.50,0.0400
1828.00,0.0400
1827.50,0.0401
1827.00,0.0401
1826.50,0.0401
1826.00,0.0401
1825.50,0.0401
1825.00,0.0401
1824.50,0.0402
1824.00,0.0402
1823.50,0.0402
1823.00,0.0403
1822.50,0.0403
1822.00,0.0403
1821.50,0.0403
1821.00,0.0404
1820.50,0.0404
1820.00,0.0404
1819.50,0.0405
1819.00,0.0405
1818.50,0.0405
1818.00,0.0406
1817.50,0.0406
1817.00,0.0406
1816.50,0.0407
1816.00,0.0407
1815.50,0.0407
1815.00,0.0408
1814.50,0.0408
1814.00,0.0409
1813.50,0.0409
1813.00,0.0409
1812.50,0.0410
1812.00,0.0410
1811.50,0.0410
1811.00,0.0410
1810.50,0.0411
1810.00,0.0411
1809.50,0.0412
1809.00,0.0412
1808.50,0.0413
1808.00,0.0413
1807.50,0.0414
1807.00,0.0414
1806.50,0.0415
1806.00,0.0415
1805.50,0.0416
1805.00,0.0416
1804.50,0.0417
1804.00,0.0417
1803.50,0.0418
1803.00,0.0418
1802.50,0.0419
1802.00,0.0419
1801.50,0.0419
1801.00,0.0420
1800.50,0.0420
1800.00,0.0420
1799.50,0.0421
1799.00,0.0421
1798.50,0.0422
1798.00,0.0422
1797.50,0.0423
1797.00,0.0423
1796.50,0.0424
1796.00,0.0424
1795.50,0.0424
1795.00,0.0425
1794.50,0.0426
1794.00,0.0426
1793.50,0.0426
1793.00,0.0427
1792.50,0.0427
1792.00,0.0428
1791.50,0.0428
1791.00,0.0428
1790.50,0.0428
1790.00,0.0429
1789.50,0.0429
1789.00,0.0430
1788.50,0.0430
1788.00,0.0431
1787.50,0.0431
1787.00,0.0432
1786.50,0.0432
1786.00,0.0432
1785.50,0.0432
1785.00,0.0433
1784.50,0.0433
1784.00,0.0433
1783.50,0.0433
1783.00,0.0433
1782.50,0.0434
1782.00,0.0434
1781.50,0.0434
1781.00,0.0434
1780.50,0.0434
1780.00,0.0434
1779.50,0.0434
1779.00,0.0434
1778.50,0.0435
1778.00,0.0435
1777.50,0.0435
1777.00,0.0435
1776.50,0.0435
1776.00,0.0435
1775.50,0.0435
1775.00,0.0435
1774.50,0.0435
1774.00,0.0434
1773.50,0.0434
1773.00,0.0435
1772.50,0.0435
1772.00,0.0434
1771.50,0.0433
1771.00,0.0433
1770.50,0.0433
1770.00,0.0434
1769.50,0.0434
1769.00,0.0434
1768.50,0.0434
1768.00,0.0434
1767.50,0.0434
1767.00,0.0434
1766.50,0.0434
1766.00,0.0434
1765.50,0.0434
1765.00,0.0434
1764.50,0.0433
1764.00,0.0433
1763.50,0.0433
1763.00,0.0433
1762.50,0.0433
1762.00,0.0432
1761.50,0.0432
1761.00,0.0432
1760.50,0.0432
1760.00,0.0432
1759.50,0.0432
1759.00,0.0432
1758.50,0.0432
1758.00,0.0432
1757.50,0.0432
1757.00,0.0432
1756.50,0.0432
1756.00,0.0432
1755.50,0.0432
1755.00,0.0432
1754.50,0.0432
1754.00,0.0432
1753.50,0.0432
1753.00,0.0432
1752.50,0.0433
1752.00,0.0433
1751.50,0.0433
1751.00,0.0433
1750.50,0.0432
1750.00,0.0432
1749.50,0.0431
1749.00,0.0431
1748.50,0.0431
1748.00,0.0431
1747.50,0.0431
1747.00,0.0432
1746.50,0.0432
1746.00,0.0433
1745.50,0.0433
1745.00,0.0434
1744.50,0.0434
1744.00,0.0434
1743.50,0.0434
1743.00,0.0434
1742.50,0.0434
1742.00,0.0434
1741.50,0.0434
1741.00,0.0434
1740.50,0.0434
1740.00,0.0434
1739.50,0.0434
1739.00,0.0434
1738.50,0.0434
1738.00,0.0434
1737.50,0.0434
1737.00,0.0435
1736.50,0.0435
1736.00,0.0435
1735.50,0.0436
1735.00,0.0437
1734.50,0.0438
1734.00,0.0438
1733.50,0.0437
1733.00,0.0437
1732.50,0.0437
1732.00,0.0437
1731.50,0.0437
1731.00,0.0437
1730.50,0.0438
1730.00,0.0438
1729.50,0.0438
1729.00,0.0438
1728.50,0.0439
1728.00,0.0439
1727.50,0.0439
1727.00,0.0440
1726.50,0.0440
1726.00,0.0440
1725.50,0.0440
1725.00,0.0440
1724.50,0.0441
1724.00,0.0441
1723.50,0.0441
1723.00,0.0441
1722.50,0.0441
1722.00,0.0441
1721.50,0.0441
1721.00,0.0441
1720.50,0.0441
1720.00,0.0442
1719.50,0.0442
1719.00,0.0442
1718.50,0.0441
1718.00,0.0441
1717.50,0.0441
1717.00,0.0442
1716.50,0.0442
1716.00,0.0441
1715.50,0.0441
1715.00,0.0441
1714.50,0.0440
1714.00,0.0440
1713.50,0.0440
1713.00,0.0441
1712.50,0.0441
1712.00,0.0441
1711.50,0.0441
1711.00,0.0441
1710.50,0.0440
1710.00,0.0440
1709.50,0.0440
1709.00,0.0440
1708.50,0.0440
1708.00,0.0440
1707.50,0.0440
1707.00,0.0440
1706.50,0.0440
1706.00,0.0439
1705.50,0.0439
1705.00,0.0439
1704.50,0.0439
1704.00,0.0439
1703.50,0.0440
1703.00,0.0440
1702.50,0.0441
1702.00,0.0440
1701.50,0.0440
1701.00,0.0441
1700.50,0.0442
1700.00,0.0440
1699.50,0.0440
1699.00,0.0441
1698.50,0.0441
1698.00,0.0441
1697.50,0.0440
1697.00,0.0441
1696.50,0.0441
1696.00,0.0442
1695.50,0.0442
1695.00,0.0443
1694.50,0.0442
1694.00,0.0442
1693.50,0.0442
1693.00,0.0442
1692.50,0.0443
1692.00,0.0443
1691.50,0.0443
1691.00,0.0443
1690.50,0.0443
1690.00,0.0443
1689.50,0.0443
1689.00,0.0443
1688.50,0.0444
1688.00,0.0444
1687.50,0.0444
1687.00,0.0444
1686.50,0.0445
1686.00,0.0445
1685.50,0.0445
1685.00,0.0446
1684.50,0.0446
1684.00,0.0444
1683.50,0.0443
1683.00,0.0444
1682.50,0.0445
1682.00,0.0446
1681.50,0.0446
1681.00,0.0447
1680.50,0.0447
1680.00,0.0448
1679.50,0.0448
1679.00,0.0448
1678.50,0.0449
1678.00,0.0449
1677.50,0.0450
1677.00,0.0450
1676.50,0.0450
1676.00,0.0451
1675.50,0.0451
1675.00,0.0452
1674.50,0.0452
1674.00,0.0452
1673.50,0.0452
1673.00,0.0452
1672.50,0.0453
1672.00,0.0453
1671.50,0.0454
1671.00,0.0454
1670.50,0.0454
1670.00,0.0455
1669.50,0.0455
1669.00,0.0456
1668.50,0.0456
1668.00,0.0457
1667.50,0.0457
1667.00,0.0458
1666.50,0.0458
1666.00,0.0459
1665.50,0.0459
1665.00,0.0460
1664.50,0.0460
1664.00,0.0460
1663.50,0.0461
1663.00,0.0461
1662.50,0.0461
1662.00,0.0462
1661.50,0.0463
1661.00,0.0463
1660.50,0.0464
1660.00,0.0464
1659.50,0.0465
1659.00,0.0466
1658.50,0.0466
1658.00,0.0466
1657.50,0.0467
1657.00,0.0467
1656.50,0.0468
1656.00,0.0468
1655.50,0.0468
1655.00,0.0469
1654.50,0.0469
1654.00,0.0469
1653.50,0.0469
1653.00,0.0469
1652.50,0.0470
1652.00,0.0471
1651.50,0.0472
1651.00,0.0473
1650.50,0.0473
1650.00,0.0473
1649.50,0.0473
1649.00,0.0474
1648.50,0.0474
1648.00,0.0474
1647.50,0.0474
1647.00,0.0474
1646.50,0.0475
1646.00,0.0475
1645.50,0.0477
1645.00,0.0478
1644.50,0.0478
1644.00,0.0478
1643.50,0.0478
1643.00,0.0478
1642.50,0.0479
1642.00,0.0479
1641.50,0.0480
1641.00,0.0480
1640.50,0.0481
1640.00,0.0481
1639.50,0.0481
1639.00,0.0481
1638.50,0.0482
1638.00,0.0482
1637.50,0.0482
1637.00,0.0483
1636.50,0.0483
1636.00,0.0483
1635.50,0.0484
1635.00,0.0484
1634.50,0.0484
1634.00,0.0485
1633.50,0.0485
1633.00,0.0486
1632.50,0.0486
1632.00,0.0487
1631.50,0.0487
1631.00,0.0488
1630.50,0.0488
1630.00,0.0489
1629.50,0.0489
1629.00,0.0489
1628.50,0.0489
1628.00,0.0490
1627.50,0.0490
1627.00,0.0491
1626.50,0.0491
1626.00,0.0492
1625.50,0.0493
1625.00,0.0493
1624.50,0.0494
1624.00,0.0494
1623.50,0.0495
1623.00,0.0495
1622.50,0.0496
1622.00,0.0496
1621.50,0.0497
1621.00,0.0497
1620.50,0.0498
1620.00,0.0499
1619.50,0.0499
1619.00,0.0500
1618.50,0.0500
1618.00,0.0501
1617.50,0.0501
1617.00,0.0503
1616.50,0.0503
1616.00,0.0504
1615.50,0.0504
1615.00,0.0504
1614.50,0.0505
1614.00,0.0505
1613.50,0.0506
1613.00,0.0507
1612.50,0.0507
1612.00,0.0508
1611.50,0.0508
1611.00,0.0509
1610.50,0.0509
1610.00,0.0510
1609.50,0.0510
1609.00,0.0511
1608.50,0.0511
1608.00,0.0511
1607.50,0.0512
1607.00,0.0513
1606.50,0.0513
1606.00,0.0514
1605.50,0.0514
1605.00,0.0515
1604.50,0.0516
1604.00,0.0517
1603.50,0.0518
1603.00,0.0519
1602.50,0.0520
1602.00,0.0521
1601.50,0.0523
1601.00,0.0525
1600.50,0.0528
1600.00,0.0531
1599.50,0.0535
1599.00,0.0539
1598.50,0.0543
1598.00,0.0547
1597.50,0.0551
1597.00,0.0552
1596.50,0.0552
1596.00,0.0550
1595.50,0.0546
1595.00,0.0541
1594.50,0.0536
1594.00,0.0531
1593.50,0.0528
1593.00,0.0524
1592.50,0.0522
1592.00,0.0519
1591.50,0.0518
1591.00,0.0516
1590.50,0.0515
1590.00,0.0513
1589.50,0.0512
1589.00,0.0511
1588.50,0.0510
1588.00,0.0509
1587.50,0.0508
1587.00,0.0508
1586.50,0.0507
1586.00,0.0506
1585.50,0.0505
1585.00,0.0505
1584.50,0.0504
1584.00,0.0503
1583.50,0.0503
1583.00,0.0502
1582.50,0.0501
1582.00,0.0500
1581.50,0.0500
1581.00,0.0499
1580.50,0.0499
1580.00,0.0498
1579.50,0.0498
1579.00,0.0497
1578.50,0.0497
1578.00,0.0496
1577.50,0.0496
1577.00,0.0496
1576.50,0.0495
1576.00,0.0494
1575.50,0.0493
1575.00,0.0492
1574.50,0.0491
1574.00,0.0491
1573.50,0.0490
1573.00,0.0490
1572.50,0.0489
1572.00,0.0489
1571.50,0.0489
1571.00,0.0488
1570.50,0.0488
1570.00,0.0487
1569.50,0.0486
1569.00,0.0485
1568.50,0.0484
1568.00,0.0484
1567.50,0.0484
1567.00,0.0484
1566.50,0.0484
1566.00,0.0484
1565.50,0.0483
1565.00,0.0483
1564.50,0.0482
1564.00,0.0482
1563.50,0.0482
1563.00,0.0482
1562.50,0.0482
1562.00,0.0482
1561.50,0.0482
1561.00,0.0482
1560.50,0.0483
1560.00,0.0485
1559.50,0.0483
1559.00,0.0481
1558.50,0.0479
1558.00,0.0479
1557.50,0.0480
1557.00,0.0481
1556.50,0.0481
1556.00,0.0480
1555.50,0.0480
1555.00,0.0481
1554.50,0.0481
1554.00,0.0481
1553.50,0.0481
1553.00,0.0481
1552.50,0.0480
1552.00,0.0480
1551.50,0.0480
1551.00,0.0480
1550.50,0.0481
1550.00,0.0480
1549.50,0.0480
1549.00,0.0480
1548.50,0.0480
1548.00,0.0480
1547.50,0.0480
1547.00,0.0481
1546.50,0.0481
1546.00,0.0481
1545.50,0.0481
1545.00,0.0481
1544.50,0.0481
1544.00,0.0481
1543.50,0.0480
1543.00,0.0480
1542.50,0.0481
1542.00,0.0481
1541.50,0.0482
1541.00,0.0482
1540.50,0.0482
1540.00,0.0482
1539.50,0.0481
1539.00,0.0481
1538.50,0.0481
1538.00,0.0482
1537.50,0.0482
1537.00,0.0482
1536.50,0.0482
1536.00,0.0483
1535.50,0.0483
1535.00,0.0483
1534.50,0.0483
1534.00,0.0483
1533.50,0.0482
1533.00,0.0482
1532.50,0.0482
1532.00,0.0482
1531.50,0.0483
1531.00,0.0483
1530.50,0.0484
1530.00,0.0484
1529.50,0.0484
1529.00,0.0484
1528.50,0.0484
1528.00,0.0484
1527.50,0.0484
1527.00,0.0484
1526.50,0.0484
1526.00,0.0484
1525.50,0.0485
1525.00,0.0485
1524.50,0.0485
1524.00,0.0484
1523.50,0.0484
1523.00,0.0484
1522.50,0.0484
1522.00,0.0484
1521.50,0.0485
1521.00,0.0485
1520.50,0.0484
1520.00,0.0484
1519.50,0.0484
1519.00,0.0484
1518.50,0.0484
1518.00,0.0484
1517.50,0.0484
1517.00,0.0483
1516.50,0.0483
1516.00,0.0483
1515.50,0.0483
1515.00,0.0483
1514.50,0.0483
1514.00,0.0484
1513.50,0.0484
1513.00,0.0484
1512.50,0.0484
1512.00,0.0484
1511.50,0.0484
1511.00,0.0484
1510.50,0.0484
1510.00,0.0484
1509.50,0.0484
1509.00,0.0484
1508.50,0.0485
1508.00,0.0485
1507.50,0.0486
1507.00,0.0486
1506.50,0.0484
1506.00,0.0483
1505.50,0.0483
1505.00,0.0484
1504.50,0.0484
1504.00,0.0484
1503.50,0.0484
1503.00,0.0485
1502.50,0.0485
1502.00,0.0485
1501.50,0.0486
1501.00,0.0486
1500.50,0.0486
1500.00,0.0486
1499.50,0.0486
1499.00,0.0487
1498.50,0.0487
1498.00,0.0487
1497.50,0.0487
1497.00,0.0488
1496.50,0.0489
1496.00,0.0490
1495.50,0.0490
1495.00,0.0491
1494.50,0.0491
1494.00,0.0491
1493.50,0.0492
1493.00,0.0493
1492.50,0.0494
1492.00,0.0495
1491.50,0.0497
1491.00,0.0498
1490.50,0.0499
1490.00,0.0500
1489.50,0.0502
1489.00,0.0504
1488.50,0.0505
1488.00,0.0506
1487.50,0.0507
1487.00,0.0509
1486.50,0.0510
1486.00,0.0511
1485.50,0.0512
1485.00,0.0513
1484.50,0.0514
1484.00,0.0515
1483.50,0.0516
1483.00,0.0517
1482.50,0.0517
1482.00,0.0518
1481.50,0.0518
1481.00,0.0519
1480.50,0.0519
1480.00,0.0519
1479.50,0.0520
1479.00,0.0520
1478.50,0.0521
1478.00,0.0521
1477.50,0.0521
1477.00,0.0522
1476.50,0.0522
1476.00,0.0522
1475.50,0.0523
1475.00,0.0524
1474.50,0.0524
1474.00,0.0526
1473.50,0.0527
1473.00,0.0528
1472.50,0.0529
1472.00,0.0530
1471.50,0.0532
1471.00,0.0534
1470.50,0.0536
1470.00,0.0537
1469.50,0.0540
1469.00,0.0543
1468.50,0.0545
1468.00,0.0548
1467.50,0.0551
1467.00,0.0554
1466.50,0.0557
1466.00,0.0559
1465.50,0.0563
1465.00,0.0567
1464.50,0.0572
1464.00,0.0576
1463.50,0.0580
1463.00,0.0584
1462.50,0.0588
1462.00,0.0593
1461.50,0.0598
1461.00,0.0603
1460.50,0.0608
1460.00,0.0612
1459.50,0.0617
1459.00,0.0623
1458.50,0.0628
1458.00,0.0632
1457.50,0.0639
1457.00,0.0646
1456.50,0.0653
1456.00,0.0657
1455.50,0.0661
1455.00,0.0665
1454.50,0.0670
1454.00,0.0676
1453.50,0.0682
1453.00,0.0688
1452.50,0.0695
1452.00,0.0702
1451.50,0.0709
1451.00,0.0716
1450.50,0.0723
1450.00,0.0730
1449.50,0.0737
1449.00,0.0743
1448.50,0.0750
1448.00,0.0756
1447.50,0.0762
1447.00,0.0766
1446.50,0.0769
1446.00,0.0771
1445.50,0.0772
1445.00,0.0772
1444.50,0.0771
1444.00,0.0769
1443.50,0.0766
1443.00,0.0763
1442.50,0.0758
1442.00,0.0753
1441.50,0.0748
1441.00,0.0743
1440.50,0.0737
1440.00,0.0731
1439.50,0.0725
1439.00,0.0720
1438.50,0.0716
1438.00,0.0712
1437.50,0.0709
1437.00,0.0705
1436.50,0.0699
1436.00,0.0694
1435.50,0.0692
1435.00,0.0690
1434.50,0.0689
1434.00,0.0689
1433.50,0.0689
1433.00,0.0690
1432.50,0.0690
1432.00,0.0692
1431.50,0.0694
1431.00,0.0696
1430.50,0.0700
1430.00,0.0704
1429.50,0.0710
1429.00,0.0716
1428.50,0.0722
1428.00,0.0728
1427.50,0.0736
1427.00,0.0745
1426.50,0.0755
1426.00,0.0766
1425.50,0.0777
1425.00,0.0790
1424.50,0.0805
1424.00,0.0822
1423.50,0.0840
1423.00,0.0859
1422.50,0.0878
1422.00,0.0897
1421.50,0.0917
1421.00,0.0937
1420.50,0.0956
1420.00,0.0980
1419.50,0.1014
1419.00,0.1047
1418.50,0.1072
1418.00,0.1091
1417.50,0.1111
1417.00,0.1131
1416.50,0.1151
1416.00,0.1169
1415.50,0.1185
1415.00,0.1199
1414.50,0.1212
1414.00,0.1222
1413.50,0.1230
1413.00,0.1236
1412.50,0.1240
1412.00,0.1242
1411.50,0.1243
1411.00,0.1242
1410.50,0.1239
1410.00,0.1236
1409.50,0.1231
1409.00,0.1224
1408.50,0.1217
1408.00,0.1208
1407.50,0.1199
1407.00,0.1189
1406.50,0.1179
1406.00,0.1170
1405.50,0.1159
1405.00,0.1148
1404.50,0.1137
1404.00,0.1128
1403.50,0.1121
1403.00,0.1114
1402.50,0.1107
1402.00,0.1100
1401.50,0.1093
1401.00,0.1086
1400.50,0.1078
1400.00,0.1069
1399.50,0.1056
1399.00,0.1041
1398.50,0.1025
1398.00,0.1009
1397.50,0.0993
1397.00,0.0976
1396.50,0.0959
1396.00,0.0942
1395.50,0.0923
1395.00,0.0901
1394.50,0.0879
1394.00,0.0860
1393.50,0.0843
1393.00,0.0829
1392.50,0.0816
1392.00,0.0803
1391.50,0.0790
1391.00,0.0778
1390.50,0.0767
1390.00,0.0757
1389.50,0.0748
1389.00,0.0740
1388.50,0.0733
1388.00,0.0726
1387.50,0.0719
1387.00,0.0711
1386.50,0.0706
1386.00,0.0701
1385.50,0.0697
1385.00,0.0693
1384.50,0.0689
1384.00,0.0686
1383.50,0.0682
1383.00,0.0678
1382.50,0.0675
1382.00,0.0671
1381.50,0.0668
1381.00,0.0665
1380.50,0.0662
1380.00,0.0659
1379.50,0.0657
1379.00,0.0654
1378.50,0.0653
1378.00,0.0651
1377.50,0.0649
1377.00,0.0648
1376.50,0.0647
1376.00,0.0647
1375.50,0.0646
1375.00,0.0645
1374.50,0.0644
1374.00,0.0644
1373.50,0.0643
1373.00,0.0643
1372.50,0.0643
1372.00,0.0643
1371.50,0.0642
1371.00,0.0641
1370.50,0.0639
1370.00,0.0637
1369.50,0.0636
1369.00,0.0634
1368.50,0.0632
1368.00,0.0630
1367.50,0.0629
1367.00,0.0628
1366.50,0.0627
1366.00,0.0627
1365.50,0.0626
1365.00,0.0625
1364.50,0.0625
1364.00,0.0624
1363.50,0.0624
1363.00,0.0623
1362.50,0.0622
1362.00,0.0622
1361.50,0.0621
1361.00,0.0621
1360.50,0.0621
1360.00,0.0621
1359.50,0.0621
1359.00,0.0621
1358.50,0.0621
1358.00,0.0621
1357.50,0.0620
1357.00,0.0620
1356.50,0.0620
1356.00,0.0620
1355.50,0.0620
1355.00,0.0620
1354.50,0.0621
1354.00,0.0621
1353.50,0.0621
1353.00,0.0621
1352.50,0.0622
1352.00,0.0622
1351.50,0.0622
1351.00,0.0623
1350.50,0.0623
1350.00,0.0624
1349.50,0.0624
1349.00,0.0625
1348.50,0.0626
1348.00,0.0626
1347.50,0.0627
1347.00,0.0627
1346.50,0.0628
1346.00,0.0628
1345.50,0.0629
1345.00,0.0630
1344.50,0.0630
1344.00,0.0631
1343.50,0.0631
1343.00,0.0631
1342.50,0.0631
1342.00,0.0632
1341.50,0.0632
1341.00,0.0633
1340.50,0.0633
1340.00,0.0632
1339.50,0.0632
1339.00,0.0633
1338.50,0.0633
1338.00,0.0634
1337.50,0.0635
1337.00,0.0635
1336.50,0.0636
1336.00,0.0637
1335.50,0.0638
1335.00,0.0639
1334.50,0.0641
1334.00,0.0642
1333.50,0.0644
1333.00,0.0645
1332.50,0.0647
1332.00,0.0648
1331.50,0.0650
1331.00,0.0651
1330.50,0.0653
1330.00,0.0655
1329.50,0.0657
1329.00,0.0659
1328.50,0.0661
1328.00,0.0663
1327.50,0.0665
1327.00,0.0667
1326.50,0.0669
1326.00,0.0672
1325.50,0.0674
1325.00,0.0676
1324.50,0.0679
1324.00,0.0682
1323.50,0.0684
1323.00,0.0687
1322.50,0.0690
1322.00,0.0693
1321.50,0.0696
1321.00,0.0699
1320.50,0.0702
1320.00,0.0705
1319.50,0.0708
1319.00,0.0711
1318.50,0.0714
1318.00,0.0718
1317.50,0.0721
1317.00,0.0725
1316.50,0.0728
1316.00,0.0732
1315.50,0.0735
1315.00,0.0739
1314.50,0.0743
1314.00,0.0747
1313.50,0.0751
1313.00,0.0755
1312.50,0.0759
1312.00,0.0763
1311.50,0.0767
1311.00,0.0771
1310.50,0.0776
1310.00,0.0780
1309.50,0.0784
1309.00,0.0789
1308.50,0.0793
1308.00,0.0798
1307.50,0.0803
1307.00,0.0807
1306.50,0.0812
1306.00,0.0817
1305.50,0.0822
1305.00,0.0827
1304.50,0.0832
1304.00,0.0837
1303.50,0.0842
1303.00,0.0848
1302.50,0.0854
1302.00,0.0860
1301.50,0.0866
1301.00,0.0872
1300.50,0.0878
1300.00,0.0885
1299.50,0.0891
1299.00,0.0898
1298.50,0.0906
1298.00,0.0913
1297.50,0.0921
1297.00,0.0929
1296.50,0.0937
1296.00,0.0946
1295.50,0.0955
1295.00,0.0964
1294.50,0.0973
1294.00,0.0983
1293.50,0.0993
1293.00,0.1003
1292.50,0.1014
1292.00,0.1025
1291.50,0.1036
1291.00,0.1048
1290.50,0.1060
1290.00,0.1072
1289.50,0.1085
1289.00,0.1099
1288.50,0.1113
1288.00,0.1127
1287.50,0.1143
1287.00,0.1159
1286.50,0.1175
1286.00,0.1193
1285.50,0.1211
1285.00,0.1231
1284.50,0.1252
1284.00,0.1274
1283.50,0.1297
1283.00,0.1322
1282.50,0.1349
1282.00,0.1377
1281.50,0.1408
1281.00,0.1441
1280.50,0.1477
1280.00,0.1516
1279.50,0.1557
1279.00,0.1602
1278.50,0.1652
1278.00,0.1706
1277.50,0.1765
1277.00,0.1830
1276.50,0.1902
1276.00,0.1981
1275.50,0.2068
1275.00,0.2165
1274.50,0.2273
1274.00,0.2394
1273.50,0.2528
1273.00,0.2679
1272.50,0.2851
1272.00,0.3048
1271.50,0.3273
1271.00,0.3531
1270.50,0.3825
1270.00,0.4162
1269.50,0.4547
1269.00,0.4987
1268.50,0.5481
1268.00,0.6030
1267.50,0.6629
1267.00,0.7274
1266.50,0.7948
1266.00,0.8632
1265.50,0.9312
1265.00,0.9966
1264.50,1.0569
1264.00,1.1098
1263.50,1.1549
1263.00,1.1914
1262.50,1.2174
1262.00,1.2323
1261.50,1.2381
1261.00,1.2356
1260.50,1.2242
1260.00,1.2045
1259.50,1.1791
1259.00,1.1491
1258.50,1.1142
1258.00,1.0750
1257.50,1.0340
1257.00,0.9925
1256.50,0.9505
1256.00,0.9088
1255.50,0.8687
1255.00,0.8304
1254.50,0.7930
1254.00,0.7559
1253.50,0.7192
1253.00,0.6823
1252.50,0.6445
1252.00,0.6059
1251.50,0.5671
1251.00,0.5288
1250.50,0.4915
1250.00,0.4560
1249.50,0.4231
1249.00,0.3930
1248.50,0.3657
1248.00,0.3412
1247.50,0.3195
1247.00,0.3003
1246.50,0.2834
1246.00,0.2686
1245.50,0.2556
1245.00,0.2442
1244.50,0.2342
1244.00,0.2252
1243.50,0.2173
1243.00,0.2103
1242.50,0.2041
1242.00,0.1985
1241.50,0.1935
1241.00,0.1891
1240.50,0.1852
1240.00,0.1816
1239.50,0.1785
1239.00,0.1757
1238.50,0.1732
1238.00,0.1709
1237.50,0.1689
1237.00,0.1671
1236.50,0.1656
1236.00,0.1642
1235.50,0.1630
1235.00,0.1620
1234.50,0.1611
1234.00,0.1604
1233.50,0.1598
1233.00,0.1593
1232.50,0.1590
1232.00,0.1588
1231.50,0.1587
1231.00,0.1588
1230.50,0.1589
1230.00,0.1591
1229.50,0.1594
1229.00,0.1598
1228.50,0.1604
1228.00,0.1610
1227.50,0.1617
1227.00,0.1625
1226.50,0.1634
1226.00,0.1643
1225.50,0.1654
1225.00,0.1665
1224.50,0.1677
1224.00,0.1690
1223.50,0.1704
1223.00,0.1718
1222.50,0.1734
1222.00,0.1749
1221.50,0.1765
1221.00,0.1782
1220.50,0.1800
1220.00,0.1818
1219.50,0.1837
1219.00,0.1857
1218.50,0.1877
1218.00,0.1897
1217.50,0.1918
1217.00,0.1940
1216.50,0.1962
1216.00,0.1984
1215.50,0.2006
1215.00,0.2029
1214.50,0.2053
1214.00,0.2076
1213.50,0.2099
1213.00,0.2123
1212.50,0.2147
1212.00,0.2171
1211.50,0.2195
1211.00,0.2219
1210.50,0.2244
1210.00,0.2268
1209.50,0.2292
1209.00,0.2316
1208.50,0.2340
1208.00,0.2363
1207.50,0.2387
1207.00,0.2410
1206.50,0.2434
1206.00,0.2456
1205.50,0.2478
1205.00,0.2501
1204.50,0.2523
1204.00,0.2544
1203.50,0.2565
1203.00,0.2586
1202.50,0.2607
1202.00,0.2627
1201.50,0.2646
1201.00,0.2666
1200.50,0.2685
1200.00,0.2703
1199.50,0.2721
1199.00,0.2739
1198.50,0.2756
1198.00,0.2773
1197.50,0.2789
1197.00,0.2806
1196.50,0.2822
1196.00,0.2837
1195.50,0.2852
1195.00,0.2867
1194.50,0.2881
1194.00,0.2894
1193.50,0.2908
1193.00,0.2921
1192.50,0.2934
1192.00,0.2946
1191.50,0.2958
1191.00,0.2970
1190.50,0.2982
1190.00,0.2993
1189.50,0.3004
1189.00,0.3016
1188.50,0.3027
1188.00,0.3037
1187.50,0.3047
1187.00,0.3057
1186.50,0.3067
1186.00,0.3077
1185.50,0.3086
1185.00,0.3096
1184.50,0.3106
1184.00,0.3115
1183.50,0.3124
1183.00,0.3133
1182.50,0.3143
1182.00,0.3152
1181.50,0.3161
1181.00,0.3171
1180.50,0.3180
1180.00,0.3189
1179.50,0.3199
1179.00,0.3209
1178.50,0.3219
1178.00,0.3228
1177.50,0.3239
1177.00,0.3249
1176.50,0.3260
1176.00,0.3270
1175.50,0.3282
1175.00,0.3293
1174.50,0.3305
1174.00,0.3315
1173.50,0.3327
1173.00,0.3338
1172.50,0.3350
1172.00,0.3361
1171.50,0.3372
1171.00,0.3383
1170.50,0.3394
1170.00,0.3405
1169.50,0.3416
1169.00,0.3428
1168.50,0.3440
1168.00,0.3452
1167.50,0.3464
1167.00,0.3478
1166.50,0.3491
1166.00,0.3504
1165.50,0.3518
1165.00,0.3533
1164.50,0.3547
1164.00,0.3562
1163.50,0.3577
1163.00,0.3593
1162.50,0.3609
1162.00,0.3625
1161.50,0.3642
1161.00,0.3661
1160.50,0.3679
1160.00,0.3697
1159.50,0.3715
1159.00,0.3735
1158.50,0.3755
1158.00,0.3775
1157.50,0.3796
1157.00,0.3818
1156.50,0.3840
1156.00,0.3862
1155.50,0.3885
1155.00,0.3910
1154.50,0.3935
1154.00,0.3959
1153.50,0.3985
1153.00,0.4013
1152.50,0.4040
1152.00,0.4068
1151.50,0.4096
1151.00,0.4127
1150.50,0.4158
1150.00,0.4189
1149.50,0.4221
1149.00,0.4256
1148.50,0.4290
1148.00,0.4325
1147.50,0.4361
1147.00,0.4400
1146.50,0.4438
1146.00,0.4477
1145.50,0.4517
1145.00,0.4560
1144.50,0.4603
1144.00,0.4647
1143.50,0.4693
1143.00,0.4742
1142.50,0.4791
1142.00,0.4840
1141.50,0.4892
1141.00,0.4946
1140.50,0.5001
1140.00,0.5056
1139.50,0.5113
1139.00,0.5173
1138.50,0.5234
1138.00,0.5296
1137.50,0.5359
1137.00,0.5426
1136.50,0.5493
1136.00,0.5562
1135.50,0.5633
1135.00,0.5708
1134.50,0.5784
1134.00,0.5862
1133.50,0.5943
1133.00,0.6028
1132.50,0.6114
1132.00,0.6202
1131.50,0.6295
1131.00,0.6391
1130.50,0.6490
1130.00,0.6590
1129.50,0.6694
1129.00,0.6804
1128.50,0.6917
1128.00,0.7030
1127.50,0.7148
1127.00,0.7272
1126.50,0.7397
1126.00,0.7524
1125.50,0.7655
1125.00,0.7791
1124.50,0.7930
1124.00,0.8070
1123.50,0.8214
1123.00,0.8365
1122.50,0.8517
1122.00,0.8669
1121.50,0.8827
1121.00,0.8990
1120.50,0.9155
1120.00,0.9318
1119.50,0.9485
1119.00,0.9659
1118.50,0.9831
1118.00,1.0001
1117.50,1.0175
1117.00,1.0355
1116.50,1.0535
1116.00,1.0710
1115.50,1.0890
1115.00,1.1076
1114.50,1.1259
1114.00,1.1437
1113.50,1.1618
1113.00,1.1805
1112.50,1.1987
1112.00,1.2160
1111.50,1.2337
1111.00,1.2519
1110.50,1.2696
1110.00,1.2863
1109.50,1.3036
1109.00,1.3216
1108.50,1.3388
1108.00,1.3547
1107.50,1.3709
1107.00,1.3879
1106.50,1.4039
1106.00,1.4184
1105.50,1.4335
1105.00,1.4494
1104.50,1.4641
1104.00,1.4768
1103.50,1.4900
1103.00,1.5044
1102.50,1.5176
1102.00,1.5290
1101.50,1.5407
1101.00,1.5535
1100.50,1.5648
1100.00,1.5741
1099.50,1.5841
1099.00,1.5956
1098.50,1.6057
1098.00,1.6134
1097.50,1.6216
1097.00,1.6309
1096.50,1.6383
1096.00,1.6433
1095.50,1.6493
1095.00,1.6572
1094.50,1.6632
1094.00,1.6664
1093.50,1.6705
1093.00,1.6764
1092.50,1.6806
1092.00,1.6821
1091.50,1.6847
1091.00,1.6890
1090.50,1.6914
1090.00,1.6910
1089.50,1.6915
1089.00,1.6940
1088.50,1.6947
1088.00,1.6926
1087.50,1.6916
1087.00,1.6928
1086.50,1.6925
1086.00,1.6900
1085.50,1.6887
1085.00,1.6890
1084.50,1.6873
1084.00,1.6827
1083.50,1.6792
1083.00,1.6777
1082.50,1.6748
1082.00,1.6697
1081.50,1.6659
1081.00,1.6640
1080.50,1.6606
1080.00,1.6550
1079.50,1.6505
1079.00,1.6480
1078.50,1.6442
1078.00,1.6383
1077.50,1.6334
1077.00,1.6300
1076.50,1.6251
1076.00,1.6182
1075.50,1.6125
1075.00,1.6085
1074.50,1.6034
1074.00,1.5967
1073.50,1.5912
1073.00,1.5874
1072.50,1.5822
1072.00,1.5751
1071.50,1.5691
1071.00,1.5649
1070.50,1.5598
1070.00,1.5532
1069.50,1.5476
1069.00,1.5435
1068.50,1.5382
1068.00,1.5310
1067.50,1.5248
1067.00,1.5201
1066.50,1.5148
1066.00,1.5084
1065.50,1.5030
1065.00,1.4991
1064.50,1.4941
1064.00,1.4876
1063.50,1.4818
1063.00,1.4773
1062.50,1.4719
1062.00,1.4653
1061.50,1.4596
1061.00,1.4553
1060.50,1.4507
1060.00,1.4452
1059.50,1.4404
1059.00,1.4363
1058.50,1.4310
1058.00,1.4245
1057.50,1.4188
1057.00,1.4146
1056.50,1.4100
1056.00,1.4043
1055.50,1.3993
1055.00,1.3956
1054.50,1.3915
1054.00,1.3866
1053.50,1.3822
1053.00,1.3789
1052.50,1.3748
1052.00,1.3697
1051.50,1.3655
1051.00,1.3627
1050.50,1.3595
1050.00,1.3555
1049.50,1.3525
1049.00,1.3509
1048.50,1.3488
1048.00,1.3455
1047.50,1.3430
1047.00,1.3416
1046.50,1.3398
1046.00,1.3374
1045.50,1.3358
1045.00,1.3353
1044.50,1.3343
1044.00,1.3327
1043.50,1.3317
1043.00,1.3318
1042.50,1.3315
1042.00,1.3304
1041.50,1.3299
1041.00,1.3306
1040.50,1.3312
1040.00,1.3311
1039.50,1.3318
1039.00,1.3333
1038.50,1.3345
1038.00,1.3350
1037.50,1.3361
1037.00,1.3382
1036.50,1.3401
1036.00,1.3412
1035.50,1.3429
1035.00,1.3458
1034.50,1.3482
1034.00,1.3498
1033.50,1.3518
1033.00,1.3547
1032.50,1.3571
1032.00,1.3589
1031.50,1.3614
1031.00,1.3650
1030.50,1.3683
1030.00,1.3706
1029.50,1.3734
1029.00,1.3772
1028.50,1.3805
1028.00,1.3828
1027.50,1.3855
1027.00,1.3888
1026.50,1.3916
1026.00,1.3936
1025.50,1.3959
1025.00,1.3990
1024.50,1.4013
1024.00,1.4026
1023.50,1.4042
1023.00,1.4063
1022.50,1.4075
1022.00,1.4076
1021.50,1.4077
1021.00,1.4083
1020.50,1.4076
1020.00,1.4053
1019.50,1.4028
1019.00,1.4003
1018.50,1.3961
1018.00,1.3899
1017.50,1.3829
1017.00,1.3757
1016.50,1.3668
1016.00,1.3558
1015.50,1.3441
1015.00,1.3321
1014.50,1.3184
1014.00,1.3028
1013.50,1.2863
1013.00,1.2691
1012.50,1.2504
1012.00,1.2302
1011.50,1.2095
1011.00,1.1888
1010.50,1.1673
1010.00,1.1450
1009.50,1.1229
1009.00,1.1013
1008.50,1.0796
1008.00,1.0578
1007.50,1.0366
1007.00,1.0162
1006.50,0.9961
1006.00,0.9761
1005.50,0.9569
1005.00,0.9386
1004.50,0.9208
1004.00,0.9035
1003.50,0.8870
1003.00,0.8715
1002.50,0.8565
1002.00,0.8420
1001.50,0.8284
1001.00,0.8155
1000.50,0.8033
1000.00,0.7917
999.50,0.7808
999.00,0.7707
998.50,0.7611
998.00,0.7518
997.50,0.7433
997.00,0.7354
996.50,0.7279
996.00,0.7207
995.50,0.7140
995.00,0.7080
994.50,0.7022
994.00,0.6968
993.50,0.6917
993.00,0.6871
992.50,0.6827
992.00,0.6784
991.50,0.6746
991.00,0.6711
990.50,0.6679
990.00,0.6647
989.50,0.6618
989.00,0.6592
988.50,0.6568
988.00,0.6545
987.50,0.6524
987.00,0.6507
986.50,0.6491
986.00,0.6475
985.50,0.6461
985.00,0.6449
984.50,0.6438
984.00,0.6428
983.50,0.6420
983.00,0.6415
982.50,0.6410
982.00,0.6405
981.50,0.6402
981.00,0.6401
980.50,0.6401
980.00,0.6401
979.50,0.6402
979.00,0.6405
978.50,0.6408
978.00,0.6412
977.50,0.6417
977.00,0.6425
976.50,0.6432
976.00,0.6440
975.50,0.6448
975.00,0.6459
974.50,0.6469
974.00,0.6480
973.50,0.6492
973.00,0.6505
972.50,0.6518
972.00,0.6531
971.50,0.6545
971.00,0.6562
970.50,0.6578
970.00,0.6594
969.50,0.6611
969.00,0.6630
968.50,0.6648
968.00,0.6666
967.50,0.6686
967.00,0.6707
966.50,0.6728
966.00,0.6749
965.50,0.6770
965.00,0.6794
964.50,0.6818
964.00,0.6841
963.50,0.6866
963.00,0.6892
962.50,0.6919
962.00,0.6944
961.50,0.6971
961.00,0.6999
960.50,0.7026
960.00,0.7053
959.50,0.7081
959.00,0.7110
958.50,0.7138
958.00,0.7165
957.50,0.7193
957.00,0.7223
956.50,0.7252
956.00,0.7279
955.50,0.7307
955.00,0.7335
954.50,0.7362
954.00,0.7387
953.50,0.7412
953.00,0.7438
952.50,0.7462
952.00,0.7486
951.50,0.7510
951.00,0.7537
950.50,0.7564
950.00,0.7590
949.50,0.7618
949.00,0.7648
948.50,0.7679
948.00,0.7708
947.50,0.7739
947.00,0.7772
946.50,0.7805
946.00,0.7837
945.50,0.7869
945.00,0.7904
944.50,0.7938
944.00,0.7973
943.50,0.8008
943.00,0.8046
942.50,0.8084
942.00,0.8120
941.50,0.8158
941.00,0.8197
940.50,0.8237
940.00,0.8275
939.50,0.8314
939.00,0.8356
938.50,0.8397
938.00,0.8437
937.50,0.8478
937.00,0.8522
936.50,0.8565
936.00,0.8607
935.50,0.8651
935.00,0.8698
934.50,0.8745
934.00,0.8791
933.50,0.8837
933.00,0.8886
932.50,0.8934
932.00,0.8982
931.50,0.9031
931.00,0.9082
930.50,0.9133
930.00,0.9183
929.50,0.9235
929.00,0.9289
928.50,0.9342
928.00,0.9393
927.50,0.9445
927.00,0.9500
926.50,0.9554
926.00,0.9606
925.50,0.9659
925.00,0.9715
924.50,0.9771
924.00,0.9825
923.50,0.9882
923.00,0.9942
922.50,1.0001
922.00,1.0059
921.50,1.0119
921.00,1.0183
920.50,1.0248
920.00,1.0312
919.50,1.0379
919.00,1.0450
918.50,1.0520
918.00,1.0587
917.50,1.0655
917.00,1.0726
916.50,1.0794
916.00,1.0858
915.50,1.0922
915.00,1.0988
914.50,1.1053
914.00,1.1113
913.50,1.1172
913.00,1.1234
912.50,1.1293
912.00,1.1347
911.50,1.1401
911.00,1.1458
910.50,1.1510
910.00,1.1558
909.50,1.1606
909.00,1.1657
908.50,1.1707
908.00,1.1754
907.50,1.1804
907.00,1.1857
906.50,1.1908
906.00,1.1956
905.50,1.2008
905.00,1.2066
904.50,1.2125
904.00,1.2179
903.50,1.2237
903.00,1.2299
902.50,1.2362
902.00,1.2421
901.50,1.2485
901.00,1.2555
900.50,1.2625
900.00,1.2691
899.50,1.2762
899.00,1.2840
898.50,1.2916
898.00,1.2987
897.50,1.3060
897.00,1.3139
896.50,1.3217
896.00,1.3290
895.50,1.3367
895.00,1.3451
894.50,1.3531
894.00,1.3603
893.50,1.3677
893.00,1.3759
892.50,1.3840
892.00,1.3918
891.50,1.4001
891.00,1.4091
890.50,1.4178
890.00,1.4257
889.50,1.4340
889.00,1.4432
888.50,1.4522
888.00,1.4607
887.50,1.4699
887.00,1.4801
886.50,1.4901
886.00,1.4994
885.50,1.5093
885.00,1.5208
884.50,1.5323
884.00,1.5427
883.50,1.5535
883.00,1.5653
882.50,1.5770
882.00,1.5879
881.50,1.5995
881.00,1.6125
880.50,1.6256
880.00,1.6378
879.50,1.6508
879.00,1.6652
878.50,1.6788
878.00,1.6908
877.50,1.7038
877.00,1.7190
876.50,1.7340
876.00,1.7472
875.50,1.7613
875.00,1.7777
874.50,1.7938
874.00,1.8079
873.50,1.8224
873.00,1.8385
872.50,1.8538
872.00,1.8671
871.50,1.8814
871.00,1.8976
870.50,1.9119
870.00,1.9227
869.50,1.9336
869.00,1.9465
868.50,1.9578
868.00,1.9656
867.50,1.9741
867.00,1.9848
866.50,1.9933
866.00,1.9975
865.50,2.0017
865.00,2.0081
864.50,2.0127
864.00,2.0134
863.50,2.0150
863.00,2.0198
862.50,2.0238
862.00,2.0247
861.50,2.0265
861.00,2.0314
860.50,2.0353
860.00,2.0361
859.50,2.0384
859.00,2.0449
858.50,2.0517
858.00,2.0560
857.50,2.0612
857.00,2.0689
856.50,2.0755
856.00,2.0797
855.50,2.0864
855.00,2.0973
854.50,2.1071
854.00,2.1132
853.50,2.1203
853.00,2.1310
852.50,2.1411
852.00,2.1485
851.50,2.1585
851.00,2.1734
850.50,2.1871
850.00,2.1968
849.50,2.2076
849.00,2.2207
848.50,2.2283
848.00,2.2281
847.50,2.2291
847.00,2.2369
846.50,2.2453
846.00,2.2500
845.50,2.2566
845.00,2.2675
844.50,2.2759
844.00,2.2784
843.50,2.2819
843.00,2.2891
842.50,2.2923
842.00,2.2882
841.50,2.2856
841.00,2.2892
840.50,2.2920
840.00,2.2904
839.50,2.2919
839.00,2.2992
838.50,2.3036
838.00,2.3011
837.50,2.3006
837.00,2.3070
836.50,2.3130
836.00,2.3144
835.50,2.3182
835.00,2.3270
834.50,2.3316
834.00,2.3287
833.50,2.3290
833.00,2.3388
832.50,2.3492
832.00,2.3531
831.50,2.3583
831.00,2.3699
830.50,2.3792
830.00,2.3807
829.50,2.3841
829.00,2.3950
828.50,2.4026
828.00,2.4006
827.50,2.4010
827.00,2.4103
826.50,2.4170
826.00,2.4155
825.50,2.4190
825.00,2.4334
824.50,2.4435
824.00,2.4413
823.50,2.4423
823.00,2.4542
822.50,2.4629
822.00,2.4613
821.50,2.4635
821.00,2.4757
820.50,2.4818
820.00,2.4742
819.50,2.4694
819.00,2.4766
818.50,2.4839
818.00,2.4832
817.50,2.4845
817.00,2.4929
816.50,2.4961
816.00,2.4884
815.50,2.4838
815.00,2.4896
814.50,2.4939
814.00,2.4891
813.50,2.4867
813.00,2.4935
812.50,2.4972
812.00,2.4908
811.50,2.4863
811.00,2.4905
810.50,2.4927
810.00,2.4878
809.50,2.4872
809.00,2.4964
808.50,2.5026
808.00,2.4979
807.50,2.4935
807.00,2.4973
806.50,2.5000
806.00,2.4963
805.50,2.4972
805.00,2.5080
804.50,2.5161
804.00,2.5133
803.50,2.5102
803.00,2.5147
802.50,2.5170
802.00,2.5103
801.50,2.5042
801.00,2.5054
800.50,2.5048
800.00,2.4989
799.50,2.4995
799.00,2.5110
798.50,2.5198
798.00,2.5170
797.50,2.5130
797.00,2.5167
796.50,2.5204
796.00,2.5171
795.50,2.5153
795.00,2.5201
794.50,2.5213
794.00,2.5135
793.50,2.5078
793.00,2.5101
792.50,2.5112
792.00,2.5068
791.50,2.5064
791.00,2.5137
790.50,2.5170
790.00,2.5102
789.50,2.5046
789.00,2.5078
788.50,2.5115
788.00,2.5094
787.50,2.5089
787.00,2.5137
786.50,2.5149
786.00,2.5091
785.50,2.5067
785.00,2.5120
784.50,2.5136
784.00,2.5071
783.50,2.5043
783.00,2.5119
782.50,2.5198
782.00,2.5207
781.50,2.5224
781.00,2.5285
780.50,2.5290
780.00,2.5211
779.50,2.5179
779.00,2.5247
778.50,2.5291
778.00,2.5237
777.50,2.5199
777.00,2.5248
776.50,2.5284
776.00,2.5238
775.50,2.5207
775.00,2.5249
774.50,2.5262
774.00,2.5209
773.50,2.5206
773.00,2.5299
772.50,2.5366
772.00,2.5317
771.50,2.5252
771.00,2.5251
770.50,2.5235
770.00,2.5155
769.50,2.5106
769.00,2.5150
768.50,2.5197
768.00,2.5179
767.50,2.5179
767.00,2.5236
766.50,2.5242
766.00,2.5149
765.50,2.5082
765.00,2.5116
764.50,2.5158
764.00,2.5131
763.50,2.5109
763.00,2.5144
762.50,2.5160
762.00,2.5116
761.50,2.5113
761.00,2.5197
760.50,2.5254
760.00,2.5201
759.50,2.5135
759.00,2.5142
758.50,2.5168
758.00,2.5164
757.50,2.5203
757.00,2.5311
756.50,2.5361
756.00,2.5289
755.50,2.5215
755.00,2.5229
754.50,2.5255
754.00,2.5233
753.50,2.5237
753.00,2.5306
752.50,2.5344
752.00,2.5301
751.50,2.5283
751.00,2.5343
750.50,2.5371
750.00,2.5301
749.50,2.5239
749.00,2.5273
748.50,2.5325
748.00,2.5317
747.50,2.5316
747.00,2.5382
746.50,2.5435
746.00,2.5401
745.50,2.5354
745.00,2.5368
744.50,2.5371
744.00,2.5304
743.50,2.5256
743.00,2.5297
742.50,2.5357
742.00,2.5361
741.50,2.5355
741.00,2.5397
740.50,2.5418
740.00,2.5365
739.50,2.5309
739.00,2.5306
738.50,2.5296
738.00,2.5244
737.50,2.5237
737.00,2.5319
736.50,2.5391
736.00,2.5369
735.50,2.5326
735.00,2.5347
734.50,2.5390
734.00,2.5395
733.50,2.5399
733.00,2.5434
732.50,2.5440
732.00,2.5387
731.50,2.5356
731.00,2.5389
730.50,2.5398
730.00,2.5334
729.50,2.5283
729.00,2.5310
728.50,2.5355
728.00,2.5367
727.50,2.5397
727.00,2.5490
726.50,2.5566
726.00,2.5551
725.50,2.5509
725.00,2.5489
724.50,2.5441
724.00,2.5356
723.50,2.5321
723.00,2.5371
722.50,2.5409
722.00,2.5359
721.50,2.5293
721.00,2.5292
720.50,2.5315
720.00,2.5316
719.50,2.5337
719.00,2.5406
718.50,2.5456
718.00,2.5449
717.50,2.5450
717.00,2.5502
716.50,2.5528
716.00,2.5484
715.50,2.5460
715.00,2.5524
714.50,2.5589
714.00,2.5569
713.50,2.5519
713.00,2.5495
712.50,2.5465
712.00,2.5416
711.50,2.5409
711.00,2.5462
710.50,2.5500
710.00,2.5483
709.50,2.5485
709.00,2.5557
708.50,2.5618
708.00,2.5591
707.50,2.5544
707.00,2.5546
706.50,2.5541
706.00,2.5486
705.50,2.5447
705.00,2.5472
704.50,2.5506
704.00,2.5508
703.50,2.5528
703.00,2.5581
702.50,2.5574
702.00,2.5458
701.50,2.5342
701.00,2.5316
700.50,2.5336
700.00,2.5341
699.50,2.5361
699.00,2.5414
698.50,2.5427
698.00,2.5352
697.50,2.5285
697.00,2.5310
696.50,2.5375
696.00,2.5409
695.50,2.5442
695.00,2.5522
694.50,2.5594
694.00,2.5590
693.50,2.5562
693.00,2.5566
692.50,2.5564
692.00,2.5520
691.50,2.5496
691.00,2.5561
690.50,2.5660
690.00,2.5727
689.50,2.5772
689.00,2.5819
688.50,2.5814
688.00,2.5717
687.50,2.5634
687.00,2.5651
686.50,2.5678
686.00,2.5645
685.50,2.5621
685.00,2.5650
684.50,2.5662
684.00,2.5617
683.50,2.5576
683.00,2.5589
682.50,2.5609
682.00,2.5580
681.50,2.5547
681.00,2.5574
680.50,2.5608
680.00,2.5595
679.50,2.5606
679.00,2.5691
678.50,2.5760
678.00,2.5730
677.50,2.5677
677.00,2.5691
676.50,2.5728
676.00,2.5737
675.50,2.5757
675.00,2.5819
674.50,2.5858
674.00,2.5808
673.50,2.5728
673.00,2.5695
672.50,2.5691
672.00,2.5677
671.50,2.5682
671.00,2.5735
670.50,2.5786
670.00,2.5754
669.50,2.5650
669.00,2.5560
668.50,2.5553
668.00,2.5696
667.50,2.5917
667.00,2.6024
666.50,2.5975
666.00,2.5844
665.50,2.5738
665.00,2.5707
664.50,2.5696
664.00,2.5650
663.50,2.5594
663.00,2.5582
662.50,2.5610
662.00,2.5651
661.50,2.5719
661.00,2.5819
660.50,2.5876
660.00,2.5843
659.50,2.5784
659.00,2.5772
658.50,2.5769
658.00,2.5732
657.50,2.5730
657.00,2.5815
656.50,2.5910
656.00,2.5921
655.50,2.5874
655.00,2.5848
654.50,2.5844
654.00,2.5828
653.50,2.5858
653.00,2.6061
652.50,2.6420
652.00,2.6717
651.50,2.6785
651.00,2.6550
650.50,2.6140
650.00,2.5842
649.50,2.5758
649.00,2.5819
648.50,2.5881
648.00,2.5880
647.50,2.5882
647.00,2.5925
646.50,2.5939
646.00,2.5899
645.50,2.5875
645.00,2.5905
644.50,2.5949
644.00,2.5950
643.50,2.5909
643.00,2.5853
642.50,2.5791
642.00,2.5747
641.50,2.5765
641.00,2.5835
640.50,2.5876
640.00,2.5847
639.50,2.5808
639.00,2.5819
638.50,2.5840
638.00,2.5825
637.50,2.5828
637.00,2.5899
636.50,2.5982
636.00,2.6003
635.50,2.5933
635.00,2.5814
634.50,2.5705
634.00,2.5648
633.50,2.5699
633.00,2.5874
632.50,2.6076
632.00,2.6175
631.50,2.6134
631.00,2.6021
630.50,2.5919
630.00,2.5869
629.50,2.5896
629.00,2.5984
628.50,2.6066
628.00,2.6073
627.50,2.6017
627.00,2.5978
626.50,2.5962
626.00,2.5935
625.50,2.5899
625.00,2.5875
624.50,2.5860
624.00,2.5843
623.50,2.5832
623.00,2.5849
622.50,2.5889
622.00,2.5934
621.50,2.5981
621.00,2.6023
620.50,2.6036
620.00,2.6008
619.50,2.5959
619.00,2.5935
618.50,2.5940
618.00,2.5949
617.50,2.5951
617.00,2.5943
616.50,2.5938
616.00,2.5943
615.50,2.5974
615.00,2.6060
614.50,2.6158
614.00,2.6192
613.50,2.6152
613.00,2.6097
612.50,2.6099
612.00,2.6194
611.50,2.6339
611.00,2.6454
610.50,2.6443
610.00,2.6285
609.50,2.6096
609.00,2.6000
608.50,2.6030
608.00,2.6112
607.50,2.6160
607.00,2.6193
606.50,2.6234
606.00,2.6258
605.50,2.6256
605.00,2.6294
604.50,2.6437
604.00,2.6659
603.50,2.6868
603.00,2.6951
602.50,2.6816
602.00,2.6506
601.50,2.6266
601.00,2.6279
600.50,2.6534
600.00,2.6877
599.50,2.6936
599.00,2.6655
598.50,2.6408
598.00,2.6346
597.50,2.6368
597.00,2.6376
596.50,2.6408
596.00,2.6504
595.50,2.6573
595.00,2.6515
594.50,2.6371
594.00,2.6252
593.50,2.6183
593.00,2.6143
592.50,2.6125
592.00,2.6130
591.50,2.6155
591.00,2.6222
590.50,2.6324
590.00,2.6383
589.50,2.6330
589.00,2.6186
588.50,2.6063
588.00,2.6076
587.50,2.6206
587.00,2.6332
586.50,2.6381
586.00,2.6352
585.50,2.6284
585.00,2.6263
584.50,2.6335
584.00,2.6450
583.50,2.6482
583.00,2.6388
582.50,2.6242
582.00,2.6155
581.50,2.6165
581.00,2.6255
580.50,2.6366
580.00,2.6437
579.50,2.6463
579.00,2.6497
578.50,2.6576
578.00,2.6672
577.50,2.6701
577.00,2.6661
576.50,2.6669
576.00,2.6736
575.50,2.6756
575.00,2.6722
574.50,2.6702
574.00,2.6711
573.50,2.6676
573.00,2.6570
572.50,2.6492
572.00,2.6528
571.50,2.6607
571.00,2.6630
570.50,2.6644
570.00,2.6707
569.50,2.6745
569.00,2.6714
568.50,2.6678
568.00,2.6653
567.50,2.6559
567.00,2.6388
566.50,2.6258
566.00,2.6271
565.50,2.6388
565.00,2.6503
564.50,2.6538
564.00,2.6483
563.50,2.6356
563.00,2.6229
562.50,2.6206
562.00,2.6269
561.50,2.6291
561.00,2.6262
560.50,2.6300
560.00,2.6457
559.50,2.6641
559.00,2.6707
558.50,2.6654
558.00,2.6605
557.50,2.6602
557.00,2.6627
556.50,2.6690
556.00,2.6837
555.50,2.6971
555.00,2.6966
554.50,2.6915
554.00,2.6933
553.50,2.6939
553.00,2.6891
552.50,2.6875
552.00,2.6904
551.50,2.6891
551.00,2.6810
550.50,2.6695
550.00,2.6595
549.50,2.6525
549.00,2.6503
548.50,2.6568
548.00,2.6638
547.50,2.6528
547.00,2.6267
546.50,2.6104
546.00,2.6147
545.50,2.6229
545.00,2.6203
544.50,2.6169
544.00,2.6215
543.50,2.6252
543.00,2.6206
542.50,2.6175
542.00,2.6269
541.50,2.6388
541.00,2.6441
540.50,2.6514
540.00,2.6672
539.50,2.6775
539.00,2.6696
538.50,2.6581
538.00,2.6570
537.50,2.6543
537.00,2.6408
536.50,2.6296
536.00,2.6296
535.50,2.6318
535.00,2.6313
534.50,2.6422
534.00,2.6717
533.50,2.6979
533.00,2.7005
532.50,2.6984
532.00,2.7158
531.50,2.7376
531.00,2.7376
530.50,2.7192
530.00,2.6993
529.50,2.6825
529.00,2.6708
528.50,2.6730
528.00,2.6899
527.50,2.6990
527.00,2.6846
526.50,2.6720
526.00,2.6848
525.50,2.6995
525.00,2.6973
524.50,2.6975
524.00,2.7117
523.50,2.7224
523.00,2.7053
522.50,2.6692
522.00,2.6438
521.50,2.6338
521.00,2.6331
520.50,2.6488
520.00,2.6811
519.50,2.7046
519.00,2.7081
518.50,2.7152
518.00,2.7363
517.50,2.7409
517.00,2.7121
516.50,2.6827
516.00,2.6772
515.50,2.6754
515.00,2.6599
514.50,2.6464
514.00,2.6486
513.50,2.6552
513.00,2.6592
512.50,2.6677
512.00,2.6789
511.50,2.6708
511.00,2.6420
510.50,2.6223
510.00,2.6279
509.50,2.6421
509.00,2.6473
508.50,2.6569
508.00,2.6827
507.50,2.7002
507.00,2.6947
506.50,2.6826
506.00,2.6815
505.50,2.6790
505.00,2.6661
504.50,2.6711
504.00,2.6993
503.50,2.7058
503.00,2.6749
502.50,2.6546
502.00,2.6784
501.50,2.7066
501.00,2.6907
500.50,2.6690
500.00,2.6773
499.50,2.6831
499.00,2.6668
498.50,2.6652
498.00,2.7067
497.50,2.7605
497.00,2.7697
496.50,2.7546
496.00,2.7646
495.50,2.7697
495.00,2.7392
494.50,2.7159
494.00,2.7273
493.50,2.7267
493.00,2.6804
492.50,2.6406
492.00,2.6446
491.50,2.6646
491.00,2.6610
490.50,2.6442
490.00,2.6401
489.50,2.6307
489.00,2.6010
488.50,2.5900
488.00,2.6199
487.50,2.6520
487.00,2.6607
486.50,2.6711
486.00,2.7065
485.50,2.7446
485.00,2.7493
484.50,2.7441
484.00,2.7692
483.50,2.7840
483.00,2.7368
482.50,2.6821
482.00,2.6632
481.50,2.6459
481.00,2.6054
480.50,2.5754
480.00,2.5857
479.50,2.6122
479.00,2.6198
478.50,2.6321
478.00,2.6724
477.50,2.6977
477.00,2.6765
476.50,2.6620
476.00,2.6972
475.50,2.7362
475.00,2.7144
474.50,2.6784
474.00,2.6802
473.50,2.6815
473.00,2.6443
472.50,2.6233
472.00,2.6713
471.50,2.7283
471.00,2.7280
470.50,2.7314
470.00,2.7916
469.50,2.8331
469.00,2.7657
468.50,2.6839
468.00,2.6695
467.50,2.6967
467.00,2.6967
466.50,2.6819
466.00,2.7128
465.50,2.7431
465.00,2.7010
464.50,2.6561
464.00,2.6596
463.50,2.6645
463.00,2.6455
462.50,2.6490
462.00,2.7105
461.50,2.7828
461.00,2.7949
460.50,2.7981
460.00,2.8629
459.50,2.9055
459.00,2.8170
458.50,2.7038
458.00,2.6604
457.50,2.6501
457.00,2.6098
456.50,2.5921
456.00,2.6452
455.50,2.7106
455.00,2.7107
454.50,2.7114
454.00,2.8039
453.50,2.9368
453.00,2.9571
452.50,2.8861
452.00,2.8644
451.50,2.8612
451.00,2.8000
450.50,2.7605
450.00,2.7845
449.50,2.8127
449.00,2.7955
448.50,2.7678
448.00,2.7808
447.50,2.7858
447.00,2.7350
446.50,2.7098
446.00,2.7980
445.50,2.9207
445.00,2.9010
444.50,2.8647
444.00,2.9693
443.50,3.0505
443.00,2.9324
442.50,2.8603
442.00,2.9197
441.50,2.9824
441.00,2.8589
440.50,2.7508
440.00,2.7558
439.50,2.7960
439.00,2.8295
438.50,2.9171
438.00,3.0924
437.50,3.1242
437.00,3.0977
436.50,3.0832
436.00,3.0368
435.50,2.9375
435.00,2.7808
434.50,2.7220
434.00,2.8020
433.50,2.8859
433.00,2.8353
432.50,2.7858
432.00,2.8492
431.50,2.9202
431.00,2.8303
430.50,2.7368
430.00,2.7590
429.50,2.8162
429.00,2.7908
428.50,2.7780
428.00,2.8947
427.50,3.0157
427.00,2.8892
426.50,2.7895
426.00,2.8537
425.50,2.8955
425.00,2.7429
424.50,2.6211
424.00,2.6282
423.50,2.6870
423.00,2.6430
422.50,2.5567
422.00,2.5725
421.50,2.6523
421.00,2.6566
420.50,2.7127
420.00,3.1847
419.50,3.0073
419.00,2.9728
418.50,3.1734
418.00,3.1369
417.50,3.2014
417.00,2.9540
416.50,2.8407
416.00,2.9042
415.50,2.8740
415.00,2.6779
414.50,2.5737
414.00,2.6190
413.50,2.7342
413.00,2.7102
412.50,2.6247
412.00,2.6995
411.50,2.8601
411.00,2.7881
410.50,2.6516
410.00,2.6674
409.50,2.7265
409.00,2.6653
408.50,2.5671
408.00,2.5467
407.50,2.6117
407.00,2.6455
406.50,2.6104
406.00,2.7930
405.50,3.0487
405.00,3.0179
404.50,3.2825
404.00,3.6151
403.50,3.6295
403.00,2.9798
402.50,2.6710
402.00,2.7441
401.50,3.0603
401.00,2.9903
400.50,2.8377
400.00,2.8530
