Created as New Dataset,Sample 012 By irlear Date Monday, July 06 2009
cm-1,A
4000.00,0.0396
3999.50,0.0395
3999.00,0.0395
3998.50,0.0395
3998.00,0.0395
3997.50,0.0395
3997.00,0.0395
3996.50,0.0395
3996.00,0.0395
3995.50,0.0395
3995.00,0.0395
3994.50,0.0395
3994.00,0.0395
3993.50,0.0395
3993.00,0.0395
3992.50,0.0394
3992.00,0.0394
3991.50,0.0394
3991.00,0.0394
3990.50,0.0394
3990.00,0.0394
3989.50,0.0394
3989.00,0.0394
3988.50,0.0394
3988.00,0.0394
3987.50,0.0394
3987.00,0.0394
3986.50,0.0394
3986.00,0.0393
3985.50,0.0393
3985.00,0.0393
3984.50,0.0393
3984.00,0.0393
3983.50,0.0393
3983.00,0.0393
3982.50,0.0393
3982.00,0.0393
3981.50,0.0393
3981.00,0.0393
3980.50,0.0393
3980.00,0.0393
3979.50,0.0393
3979.00,0.0393
3978.50,0.0393
3978.00,0.0392
3977.50,0.0392
3977.00,0.0392
3976.50,0.0392
3976.00,0.0392
3975.50,0.0392
3975.00,0.0392
3974.50,0.0392
3974.00,0.0392
3973.50,0.0392
3973.00,0.0392
3972.50,0.0392
3972.00,0.0392
3971.50,0.0392
3971.00,0.0392
3970.50,0.0392
3970.00,0.0392
3969.50,0.0392
3969.00,0.0392
3968.50,0.0391
3968.00,0.0391
3967.50,0.0392
3967.00,0.0392
3966.50,0.0392
3966.00,0.0392
3965.50,0.0392
3965.00,0.0391
3964.50,0.0391
3964.00,0.0391
3963.50,0.0391
3963.00,0.0391
3962.50,0.0391
3962.00,0.0391
3961.50,0.0391
3961.00,0.0390
3960.50,0.0390
3960.00,0.0391
3959.50,0.0391
3959.00,0.0391
3958.50,0.0391
3958.00,0.0391
3957.50,0.0391
3957.00,0.0390
3956.50,0.0390
3956.00,0.0390
3955.50,0.0390
3955.00,0.0390
3954.50,0.0390
3954.00,0.0390
3953.50,0.0390
3953.00,0.0390
3952.50,0.0390
3952.00,0.0390
3951.50,0.0390
3951.00,0.0389
3950.50,0.0389
3950.00,0.0389
3949.50,0.0389
3949.00,0.0389
3948.50,0.0389
3948.00,0.0389
3947.50,0.0389
3947.00,0.0389
3946.50,0.0389
3946.00,0.0389
3945.50,0.0389
3945.00,0.0390
3944.50,0.0390
3944.00,0.0389
3943.50,0.0389
3943.00,0.0388
3942.50,0.0388
3942.00,0.0388
3941.50,0.0388
3941.00,0.0388
3940.50,0.0389
3940.00,0.0389
3939.50,0.0390
3939.00,0.0389
3938.50,0.0389
3938.00,0.0389
3937.50,0.0389
3937.00,0.0389
3936.50,0.0389
3936.00,0.0389
3935.50,0.0389
3935.00,0.0389
3934.50,0.0389
3934.00,0.0389
3933.50,0.0388
3933.00,0.0388
3932.50,0.0388
3932.00,0.0388
3931.50,0.0387
3931.00,0.0387
3930.50,0.0387
3930.00,0.0388
3929.50,0.0388
3929.00,0.0388
3928.50,0.0388
3928.00,0.0388
3927.50,0.0388
3927.00,0.0389
3926.50,0.0388
3926.00,0.0388
3925.50,0.0387
3925.00,0.0388
3924.50,0.0387
3924.00,0.0387
3923.50,0.0387
3923.00,0.0387
3922.50,0.0388
3922.00,0.0388
3921.50,0.0388
3921.00,0.0388
3920.50,0.0388
3920.00,0.0388
3919.50,0.0388
3919.00,0.0388
3918.50,0.0387
3918.00,0.0387
3917.50,0.0387
3917.00,0.0388
3916.50,0.0388
3916.00,0.0387
3915.50,0.0387
3915.00,0.0388
3914.50,0.0388
3914.00,0.0389
3913.50,0.0389
3913.00,0.0389
3912.50,0.0389
3912.00,0.0389
3911.50,0.0389
3911.00,0.0389
3910.50,0.0389
3910.00,0.0389
3909.50,0.0389
3909.00,0.0389
3908.50,0.0389
3908.00,0.0389
3907.50,0.0389
3907.00,0.0389
3906.50,0.0388
3906.00,0.0388
3905.50,0.0387
3905.00,0.0385
3904.50,0.0386
3904.00,0.0387
3903.50,0.0388
3903.00,0.0387
3902.50,0.0386
3902.00,0.0386
3901.50,0.0388
3901.00,0.0388
3900.50,0.0386
3900.00,0.0384
3899.50,0.0385
3899.00,0.0387
3898.50,0.0388
3898.00,0.0387
3897.50,0.0387
3897.00,0.0389
3896.50,0.0390
3896.00,0.0390
3895.50,0.0390
3895.00,0.0390
3894.50,0.0390
3894.00,0.0389
3893.50,0.0389
3893.00,0.0389
3892.50,0.0388
3892.00,0.0387
3891.50,0.0387
3891.00,0.0388
3890.50,0.0389
3890.00,0.0389
3889.50,0.0389
3889.00,0.0390
3888.50,0.0390
3888.00,0.0391
3887.50,0.0390
3887.00,0.0388
3886.50,0.0387
3886.00,0.0387
3885.50,0.0387
3885.00,0.0388
3884.50,0.0387
3884.00,0.0387
3883.50,0.0388
3883.00,0.0389
3882.50,0.0390
3882.00,0.0389
3881.50,0.0388
3881.00,0.0388
3880.50,0.0388
3880.00,0.0388
3879.50,0.0388
3879.00,0.0388
3878.50,0.0389
3878.00,0.0390
3877.50,0.0391
3877.00,0.0391
3876.50,0.0391
3876.00,0.0391
3875.50,0.0390
3875.00,0.0389
3874.50,0.0389
3874.00,0.0389
3873.50,0.0389
3873.00,0.0388
3872.50,0.0388
3872.00,0.0389
3871.50,0.0389
3871.00,0.0389
3870.50,0.0389
3870.00,0.0389
3869.50,0.0389
3869.00,0.0389
3868.50,0.0389
3868.00,0.0389
3867.50,0.0390
3867.00,0.0390
3866.50,0.0390
3866.00,0.0389
3865.50,0.0389
3865.00,0.0390
3864.50,0.0391
3864.00,0.0390
3863.50,0.0389
3863.00,0.0389
3862.50,0.0389
3862.00,0.0390
3861.50,0.0391
3861.00,0.0392
3860.50,0.0392
3860.00,0.0392
3859.50,0.0393
3859.00,0.0393
3858.50,0.0393
3858.00,0.0393
3857.50,0.0392
3857.00,0.0392
3856.50,0.0393
3856.00,0.0391
3855.50,0.0388
3855.00,0.0387
3854.50,0.0392
3854.00,0.0398
3853.50,0.0397
3853.00,0.0392
3852.50,0.0389
3852.00,0.0391
3851.50,0.0394
3851.00,0.0396
3850.50,0.0395
3850.00,0.0395
3849.50,0.0396
3849.00,0.0398
3848.50,0.0398
3848.00,0.0398
3847.50,0.0398
3847.00,0.0398
3846.50,0.0398
3846.00,0.0398
3845.50,0.0399
3845.00,0.0399
3844.50,0.0399
3844.00,0.0399
3843.50,0.0400
3843.00,0.0401
3842.50,0.0401
3842.00,0.0400
3841.50,0.0400
3841.00,0.0401
3840.50,0.0402
3840.00,0.0401
3839.50,0.0400
3839.00,0.0399
3838.50,0.0398
3838.00,0.0400
3837.50,0.0403
3837.00,0.0404
3836.50,0.0402
3836.00,0.0401
3835.50,0.0401
3835.00,0.0404
3834.50,0.0406
3834.00,0.0406
3833.50,0.0406
3833.00,0.0405
3832.50,0.0406
3832.00,0.0407
3831.50,0.0408
3831.00,0.0408
3830.50,0.0407
3830.00,0.0407
3829.50,0.0407
3829.00,0.0409
3828.50,0.0409
3828.00,0.0409
3827.50,0.0408
3827.00,0.0408
3826.50,0.0408
3826.00,0.0409
3825.50,0.0408
3825.00,0.0408
3824.50,0.0409
3824.00,0.0409
3823.50,0.0409
3823.00,0.0409
3822.50,0.0408
3822.00,0.0408
3821.50,0.0409
3821.00,0.0407
3820.50,0.0406
3820.00,0.0406
3819.50,0.0406
3819.00,0.0408
3818.50,0.0409
3818.00,0.0410
3817.50,0.0409
3817.00,0.0408
3816.50,0.0408
3816.00,0.0410
3815.50,0.0411
3815.00,0.0411
3814.50,0.0410
3814.00,0.0410
3813.50,0.0411
3813.00,0.0412
3812.50,0.0413
3812.00,0.0413
3811.50,0.0414
3811.00,0.0414
3810.50,0.0414
3810.00,0.0414
3809.50,0.0414
3809.00,0.0414
3808.50,0.0413
3808.00,0.0412
3807.50,0.0413
3807.00,0.0415
3806.50,0.0416
3806.00,0.0416
3805.50,0.0415
3805.00,0.0414
3804.50,0.0415
3804.00,0.0416
3803.50,0.0416
3803.00,0.0416
3802.50,0.0415
3802.00,0.0414
3801.50,0.0414
3801.00,0.0416
3800.50,0.0417
3800.00,0.0417
3799.50,0.0416
3799.00,0.0417
3798.50,0.0418
3798.00,0.0419
3797.50,0.0419
3797.00,0.0419
3796.50,0.0419
3796.00,0.0420
3795.50,0.0420
3795.00,0.0420
3794.50,0.0421
3794.00,0.0422
3793.50,0.0423
3793.00,0.0423
3792.50,0.0424
3792.00,0.0424
3791.50,0.0425
3791.00,0.0425
3790.50,0.0426
3790.00,0.0426
3789.50,0.0427
3789.00,0.0428
3788.50,0.0428
3788.00,0.0429
3787.50,0.0430
3787.00,0.0430
3786.50,0.0431
3786.00,0.0431
3785.50,0.0431
3785.00,0.0432
3784.50,0.0432
3784.00,0.0433
3783.50,0.0434
3783.00,0.0434
3782.50,0.0435
3782.00,0.0436
3781.50,0.0437
3781.00,0.0437
3780.50,0.0436
3780.00,0.0436
3779.50,0.0437
3779.00,0.0437
3778.50,0.0438
3778.00,0.0439
3777.50,0.0440
3777.00,0.0441
3776.50,0.0443
3776.00,0.0443
3775.50,0.0444
3775.00,0.0444
3774.50,0.0445
3774.00,0.0445
3773.50,0.0446
3773.00,0.0446
3772.50,0.0446
3772.00,0.0447
3771.50,0.0447
3771.00,0.0447
3770.50,0.0447
3770.00,0.0447
3769.50,0.0448
3769.00,0.0448
3768.50,0.0448
3768.00,0.0448
3767.50,0.0449
3767.00,0.0450
3766.50,0.0450
3766.00,0.0450
3765.50,0.0450
3765.00,0.0450
3764.50,0.0450
3764.00,0.0450
3763.50,0.0451
3763.00,0.0452
3762.50,0.0452
3762.00,0.0452
3761.50,0.0452
3761.00,0.0452
3760.50,0.0451
3760.00,0.0451
3759.50,0.0451
3759.00,0.0450
3758.50,0.0450
3758.00,0.0449
3757.50,0.0450
3757.00,0.0451
3756.50,0.0451
3756.00,0.0451
3755.50,0.0451
3755.00,0.0450
3754.50,0.0451
3754.00,0.0451
3753.50,0.0450
3753.00,0.0448
3752.50,0.0449
3752.00,0.0450
3751.50,0.0450
3751.00,0.0448
3750.50,0.0445
3750.00,0.0444
3749.50,0.0447
3749.00,0.0448
3748.50,0.0448
3748.00,0.0446
3747.50,0.0445
3747.00,0.0445
3746.50,0.0445
3746.00,0.0443
3745.50,0.0441
3745.00,0.0441
3744.50,0.0442
3744.00,0.0441
3743.50,0.0441
3743.00,0.0440
3742.50,0.0440
3742.00,0.0440
3741.50,0.0441
3741.00,0.0441
3740.50,0.0441
3740.00,0.0440
3739.50,0.0439
3739.00,0.0438
3738.50,0.0439
3738.00,0.0438
3737.50,0.0437
3737.00,0.0436
3736.50,0.0436
3736.00,0.0435
3735.50,0.0434
3735.00,0.0433
3734.50,0.0434
3734.00,0.0436
3733.50,0.0436
3733.00,0.0436
3732.50,0.0438
3732.00,0.0442
3731.50,0.0443
3731.00,0.0442
3730.50,0.0442
3730.00,0.0443
3729.50,0.0444
3729.00,0.0445
3728.50,0.0446
3728.00,0.0446
3727.50,0.0446
3727.00,0.0446
3726.50,0.0447
3726.00,0.0447
3725.50,0.0447
3725.00,0.0448
3724.50,0.0449
3724.00,0.0450
3723.50,0.0451
3723.00,0.0451
3722.50,0.0452
3722.00,0.0453
3721.50,0.0454
3721.00,0.0455
3720.50,0.0455
3720.00,0.0456
3719.50,0.0458
3719.00,0.0458
3718.50,0.0459
3718.00,0.0460
3717.50,0.0460
3717.00,0.0462
3716.50,0.0463
3716.00,0.0464
3715.50,0.0464
3715.00,0.0465
3714.50,0.0466
3714.00,0.0466
3713.50,0.0467
3713.00,0.0467
3712.50,0.0469
3712.00,0.0470
3711.50,0.0470
3711.00,0.0470
3710.50,0.0469
3710.00,0.0470
3709.50,0.0473
3709.00,0.0475
3708.50,0.0476
3708.00,0.0477
3707.50,0.0478
3707.00,0.0479
3706.50,0.0481
3706.00,0.0482
3705.50,0.0482
3705.00,0.0482
3704.50,0.0483
3704.00,0.0484
3703.50,0.0484
3703.00,0.0484
3702.50,0.0484
3702.00,0.0484
3701.50,0.0484
3701.00,0.0485
3700.50,0.0485
3700.00,0.0485
3699.50,0.0485
3699.00,0.0486
3698.50,0.0486
3698.00,0.0485
3697.50,0.0485
3697.00,0.0484
3696.50,0.0484
3696.00,0.0483
3695.50,0.0482
3695.00,0.0482
3694.50,0.0482
3694.00,0.0481
3693.50,0.0481
3693.00,0.0480
3692.50,0.0479
3692.00,0.0477
3691.50,0.0476
3691.00,0.0475
3690.50,0.0473
3690.00,0.0471
3689.50,0.0468
3689.00,0.0467
3688.50,0.0469
3688.00,0.0470
3687.50,0.0470
3687.00,0.0469
3686.50,0.0469
3686.00,0.0470
3685.50,0.0470
3685.00,0.0470
3684.50,0.0469
3684.00,0.0469
3683.50,0.0468
3683.00,0.0468
3682.50,0.0468
3682.00,0.0468
3681.50,0.0467
3681.00,0.0467
3680.50,0.0466
3680.00,0.0466
3679.50,0.0465
3679.00,0.0465
3678.50,0.0464
3678.00,0.0464
3677.50,0.0464
3677.00,0.0463
3676.50,0.0463
3676.00,0.0464
3675.50,0.0462
3675.00,0.0460
3674.50,0.0459
3674.00,0.0461
3673.50,0.0463
3673.00,0.0464
3672.50,0.0465
3672.00,0.0465
3671.50,0.0464
3671.00,0.0466
3670.50,0.0467
3670.00,0.0466
3669.50,0.0465
3669.00,0.0464
3668.50,0.0465
3668.00,0.0467
3667.50,0.0468
3667.00,0.0469
3666.50,0.0470
3666.00,0.0472
3665.50,0.0472
3665.00,0.0473
3664.50,0.0473
3664.00,0.0474
3663.50,0.0474
3663.00,0.0474
3662.50,0.0475
3662.00,0.0476
3661.50,0.0476
3661.00,0.0476
3660.50,0.0476
3660.00,0.0477
3659.50,0.0478
3659.00,0.0478
3658.50,0.0479
3658.00,0.0480
3657.50,0.0480
3657.00,0.0480
3656.50,0.0482
3656.00,0.0483
3655.50,0.0484
3655.00,0.0484
3654.50,0.0485
3654.00,0.0486
3653.50,0.0487
3653.00,0.0487
3652.50,0.0487
3652.00,0.0486
3651.50,0.0486
3651.00,0.0486
3650.50,0.0484
3650.00,0.0483
3649.50,0.0484
3649.00,0.0486
3648.50,0.0488
3648.00,0.0488
3647.50,0.0487
3647.00,0.0488
3646.50,0.0489
3646.00,0.0490
3645.50,0.0491
3645.00,0.0492
3644.50,0.0493
3644.00,0.0494
3643.50,0.0494
3643.00,0.0494
3642.50,0.0494
3642.00,0.0493
3641.50,0.0493
3641.00,0.0493
3640.50,0.0493
3640.00,0.0493
3639.50,0.0493
3639.00,0.0493
3638.50,0.0493
3638.00,0.0492
3637.50,0.0492
3637.00,0.0491
3636.50,0.0491
3636.00,0.0491
3635.50,0.0490
3635.00,0.0489
3634.50,0.0489
3634.00,0.0488
3633.50,0.0487
3633.00,0.0487
3632.50,0.0487
3632.00,0.0487
3631.50,0.0487
3631.00,0.0486
3630.50,0.0485
3630.00,0.0484
3629.50,0.0483
3629.00,0.0481
3628.50,0.0479
3628.00,0.0478
3627.50,0.0479
3627.00,0.0480
3626.50,0.0481
3626.00,0.0481
3625.50,0.0481
3625.00,0.0481
3624.50,0.0481
3624.00,0.0481
3623.50,0.0481
3623.00,0.0480
3622.50,0.0480
3622.00,0.0479
3621.50,0.0479
3621.00,0.0478
3620.50,0.0477
3620.00,0.0477
3619.50,0.0478
3619.00,0.0478
3618.50,0.0477
3618.00,0.0476
3617.50,0.0476
3617.00,0.0477
3616.50,0.0478
3616.00,0.0477
3615.50,0.0478
3615.00,0.0478
3614.50,0.0478
3614.00,0.0477
3613.50,0.0476
3613.00,0.0476
3612.50,0.0477
3612.00,0.0477
3611.50,0.0478
3611.00,0.0478
3610.50,0.0478
3610.00,0.0478
3609.50,0.0479
3609.00,0.0479
3608.50,0.0479
3608.00,0.0478
3607.50,0.0477
3607.00,0.0478
3606.50,0.0478
3606.00,0.0479
3605.50,0.0479
3605.00,0.0480
3604.50,0.0481
3604.00,0.0481
3603.50,0.0481
3603.00,0.0481
3602.50,0.0481
3602.00,0.0481
3601.50,0.0481
3601.00,0.0481
3600.50,0.0481
3600.00,0.0480
3599.50,0.0480
3599.00,0.0481
3598.50,0.0481
3598.00,0.0482
3597.50,0.0483
3597.00,0.0483
3596.50,0.0483
3596.00,0.0483
3595.50,0.0483
3595.00,0.0482
3594.50,0.0482
3594.00,0.0482
3593.50,0.0482
3593.00,0.0482
3592.50,0.0482
3592.00,0.0483
3591.50,0.0483
3591.00,0.0484
3590.50,0.0484
3590.00,0.0484
3589.50,0.0483
3589.00,0.0482
3588.50,0.0482
3588.00,0.0481
3587.50,0.0479
3587.00,0.0477
3586.50,0.0477
3586.00,0.0477
3585.50,0.0477
3585.00,0.0478
3584.50,0.0479
3584.00,0.0480
3583.50,0.0481
3583.00,0.0480
3582.50,0.0480
3582.00,0.0480
3581.50,0.0480
3581.00,0.0480
3580.50,0.0480
3580.00,0.0479
3579.50,0.0479
3579.00,0.0479
3578.50,0.0479
3578.00,0.0479
3577.50,0.0478
3577.00,0.0478
3576.50,0.0478
3576.00,0.0477
3575.50,0.0477
3575.00,0.0477
3574.50,0.0477
3574.00,0.0476
3573.50,0.0476
3573.00,0.0476
3572.50,0.0475
3572.00,0.0475
3571.50,0.0475
3571.00,0.0474
3570.50,0.0474
3570.00,0.0473
3569.50,0.0472
3569.00,0.0472
3568.50,0.0471
3568.00,0.0471
3567.50,0.0470
3567.00,0.0468
3566.50,0.0468
3566.00,0.0468
3565.50,0.0468
3565.00,0.0468
3564.50,0.0469
3564.00,0.0469
3563.50,0.0470
3563.00,0.0470
3562.50,0.0469
3562.00,0.0468
3561.50,0.0468
3561.00,0.0468
3560.50,0.0468
3560.00,0.0468
3559.50,0.0468
3559.00,0.0468
3558.50,0.0468
3558.00,0.0468
3557.50,0.0469
3557.00,0.0468
3556.50,0.0468
3556.00,0.0468
3555.50,0.0468
3555.00,0.0468
3554.50,0.0468
3554.00,0.0468
3553.50,0.0467
3553.00,0.0466
3552.50,0.0466
3552.00,0.0465
3551.50,0.0465
3551.00,0.0465
3550.50,0.0466
3550.00,0.0466
3549.50,0.0467
3549.00,0.0467
3548.50,0.0466
3548.00,0.0466
3547.50,0.0465
3547.00,0.0464
3546.50,0.0463
3546.00,0.0462
3545.50,0.0462
3545.00,0.0462
3544.50,0.0462
3544.00,0.0463
3543.50,0.0463
3543.00,0.0463
3542.50,0.0464
3542.00,0.0464
3541.50,0.0465
3541.00,0.0465
3540.50,0.0465
3540.00,0.0465
3539.50,0.0465
3539.00,0.0465
3538.50,0.0465
3538.00,0.0465
3537.50,0.0464
3537.00,0.0464
3536.50,0.0463
3536.00,0.0463
3535.50,0.0464
3535.00,0.0464
3534.50,0.0465
3534.00,0.0465
3533.50,0.0465
3533.00,0.0465
3532.50,0.0465
3532.00,0.0465
3531.50,0.0465
3531.00,0.0465
3530.50,0.0465
3530.00,0.0465
3529.50,0.0464
3529.00,0.0464
3528.50,0.0464
3528.00,0.0463
3527.50,0.0463
3527.00,0.0463
3526.50,0.0463
3526.00,0.0463
3525.50,0.0462
3525.00,0.0462
3524.50,0.0461
3524.00,0.0461
3523.50,0.0461
3523.00,0.0461
3522.50,0.0462
3522.00,0.0462
3521.50,0.0462
3521.00,0.0463
3520.50,0.0463
3520.00,0.0463
3519.50,0.0463
3519.00,0.0463
3518.50,0.0462
3518.00,0.0462
3517.50,0.0462
3517.00,0.0462
3516.50,0.0462
3516.00,0.0462
3515.50,0.0461
3515.00,0.0461
3514.50,0.0460
3514.00,0.0460
3513.50,0.0460
3513.00,0.0460
3512.50,0.0460
3512.00,0.0460
3511.50,0.0461
3511.00,0.0460
3510.50,0.0460
3510.00,0.0460
3509.50,0.0460
3509.00,0.0460
3508.50,0.0459
3508.00,0.0459
3507.50,0.0460
3507.00,0.0460
3506.50,0.0460
3506.00,0.0459
3505.50,0.0459
3505.00,0.0459
3504.50,0.0458
3504.00,0.0457
3503.50,0.0456
3503.00,0.0455
3502.50,0.0455
3502.00,0.0455
3501.50,0.0456
3501.00,0.0457
3500.50,0.0457
3500.00,0.0457
3499.50,0.0457
3499.00,0.0456
3498.50,0.0456
3498.00,0.0456
3497.50,0.0455
3497.00,0.0455
3496.50,0.0455
3496.00,0.0455
3495.50,0.0455
3495.00,0.0455
3494.50,0.0455
3494.00,0.0455
3493.50,0.0455
3493.00,0.0455
3492.50,0.0455
3492.00,0.0455
3491.50,0.0455
3491.00,0.0455
3490.50,0.0454
3490.00,0.0454
3489.50,0.0454
3489.00,0.0454
3488.50,0.0453
3488.00,0.0453
3487.50,0.0452
3487.00,0.0452
3486.50,0.0452
3486.00,0.0452
3485.50,0.0453
3485.00,0.0453
3484.50,0.0453
3484.00,0.0453
3483.50,0.0453
3483.00,0.0452
3482.50,0.0452
3482.00,0.0451
3481.50,0.0451
3481.00,0.0450
3480.50,0.0449
3480.00,0.0449
3479.50,0.0449
3479.00,0.0450
3478.50,0.0450
3478.00,0.0450
3477.50,0.0451
3477.00,0.0450
3476.50,0.0450
3476.00,0.0450
3475.50,0.0450
3475.00,0.0449
3474.50,0.0449
3474.00,0.0449
3473.50,0.0449
3473.00,0.0449
3472.50,0.0449
3472.00,0.0449
3471.50,0.0448
3471.00,0.0448
3470.50,0.0447
3470.00,0.0446
3469.50,0.0446
3469.00,0.0446
3468.50,0.0445
3468.00,0.0445
3467.50,0.0445
3467.00,0.0445
3466.50,0.0445
3466.00,0.0445
3465.50,0.0446
3465.00,0.0446
3464.50,0.0446
3464.00,0.0446
3463.50,0.0446
3463.00,0.0446
3462.50,0.0446
3462.00,0.0445
3461.50,0.0444
3461.00,0.0444
3460.50,0.0444
3460.00,0.0443
3459.50,0.0444
3459.00,0.0444
3458.50,0.0444
3458.00,0.0444
3457.50,0.0444
3457.00,0.0444
3456.50,0.0444
3456.00,0.0444
3455.50,0.0443
3455.00,0.0443
3454.50,0.0443
3454.00,0.0443
3453.50,0.0443
3453.00,0.0442
3452.50,0.0442
3452.00,0.0442
3451.50,0.0442
3451.00,0.0442
3450.50,0.0442
3450.00,0.0442
3449.50,0.0441
3449.00,0.0441
3448.50,0.0440
3448.00,0.0440
3447.50,0.0439
3447.00,0.0439
3446.50,0.0439
3446.00,0.0439
3445.50,0.0439
3445.00,0.0439
3444.50,0.0439
3444.00,0.0439
3443.50,0.0439
3443.00,0.0439
3442.50,0.0439
3442.00,0.0438
3441.50,0.0438
3441.00,0.0438
3440.50,0.0438
3440.00,0.0438
3439.50,0.0438
3439.00,0.0437
3438.50,0.0436
3438.00,0.0436
3437.50,0.0435
3437.00,0.0435
3436.50,0.0435
3436.00,0.0434
3435.50,0.0434
3435.00,0.0434
3434.50,0.0434
3434.00,0.0435
3433.50,0.0435
3433.00,0.0435
3432.50,0.0435
3432.00,0.0434
3431.50,0.0434
3431.00,0.0433
3430.50,0.0433
3430.00,0.0433
3429.50,0.0433
3429.00,0.0433
3428.50,0.0433
3428.00,0.0433
3427.50,0.0434
3427.00,0.0434
3426.50,0.0434
3426.00,0.0434
3425.50,0.0434
3425.00,0.0434
3424.50,0.0433
3424.00,0.0433
3423.50,0.0433
3423.00,0.0433
3422.50,0.0433
3422.00,0.0432
3421.50,0.0432
3421.00,0.0432
3420.50,0.0431
3420.00,0.0431
3419.50,0.0432
3419.00,0.0432
3418.50,0.0432
3418.00,0.0432
3417.50,0.0432
3417.00,0.0432
3416.50,0.0431
3416.00,0.0431
3415.50,0.0431
3415.00,0.0431
3414.50,0.0430
3414.00,0.0430
3413.50,0.0430
3413.00,0.0429
3412.50,0.0429
3412.00,0.0429
3411.50,0.0429
3411.00,0.0430
3410.50,0.0429
3410.00,0.0429
3409.50,0.0429
3409.00,0.0429
3408.50,0.0429
3408.00,0.0429
3407.50,0.0429
3407.00,0.0429
3406.50,0.0429
3406.00,0.0429
3405.50,0.0429
3405.00,0.0428
3404.50,0.0428
3404.00,0.0428
3403.50,0.0427
3403.00,0.0427
3402.50,0.0426
3402.00,0.0426
3401.50,0.0425
3401.00,0.0425
3400.50,0.0425
3400.00,0.0425
3399.50,0.0426
3399.00,0.0426
3398.50,0.0426
3398.00,0.0426
3397.50,0.0426
3397.00,0.0426
3396.50,0.0426
3396.00,0.0426
3395.50,0.0426
3395.00,0.0426
3394.50,0.0426
3394.00,0.0426
3393.50,0.0425
3393.00,0.0425
3392.50,0.0424
3392.00,0.0424
3391.50,0.0424
3391.00,0.0424
3390.50,0.0425
3390.00,0.0425
3389.50,0.0426
3389.00,0.0426
3388.50,0.0426
3388.00,0.0426
3387.50,0.0426
3387.00,0.0426
3386.50,0.0426
3386.00,0.0426
3385.50,0.0426
3385.00,0.0425
3384.50,0.0425
3384.00,0.0425
3383.50,0.0425
3383.00,0.0425
3382.50,0.0425
3382.00,0.0425
3381.50,0.0424
3381.00,0.0424
3380.50,0.0424
3380.00,0.0424
3379.50,0.0424
3379.00,0.0425
3378.50,0.0424
3378.00,0.0424
3377.50,0.0424
3377.00,0.0424
3376.50,0.0424
3376.00,0.0424
3375.50,0.0424
3375.00,0.0424
3374.50,0.0424
3374.00,0.0424
3373.50,0.0424
3373.00,0.0424
3372.50,0.0424
3372.00,0.0423
3371.50,0.0423
3371.00,0.0422
3370.50,0.0422
3370.00,0.0422
3369.50,0.0422
3369.00,0.0422
3368.50,0.0422
3368.00,0.0422
3367.50,0.0422
3367.00,0.0422
3366.50,0.0422
3366.00,0.0422
3365.50,0.0423
3365.00,0.0423
3364.50,0.0424
3364.00,0.0424
3363.50,0.0424
3363.00,0.0424
3362.50,0.0424
3362.00,0.0423
3361.50,0.0423
3361.00,0.0423
3360.50,0.0423
3360.00,0.0423
3359.50,0.0423
3359.00,0.0423
3358.50,0.0424
3358.00,0.0424
3357.50,0.0424
3357.00,0.0424
3356.50,0.0424
3356.00,0.0424
3355.50,0.0424
3355.00,0.0424
3354.50,0.0424
3354.00,0.0424
3353.50,0.0423
3353.00,0.0423
3352.50,0.0423
3352.00,0.0422
3351.50,0.0422
3351.00,0.0421
3350.50,0.0421
3350.00,0.0422
3349.50,0.0422
3349.00,0.0423
3348.50,0.0423
3348.00,0.0423
3347.50,0.0423
3347.00,0.0423
3346.50,0.0423
3346.00,0.0423
3345.50,0.0423
3345.00,0.0422
3344.50,0.0422
3344.00,0.0422
3343.50,0.0422
3343.00,0.0422
3342.50,0.0422
3342.00,0.0422
3341.50,0.0422
3341.00,0.0422
3340.50,0.0422
3340.00,0.0421
3339.50,0.0421
3339.00,0.0420
3338.50,0.0421
3338.00,0.0421
3337.50,0.0421
3337.00,0.0421
3336.50,0.0421
3336.00,0.0421
3335.50,0.0422
3335.00,0.0422
3334.50,0.0422
3334.00,0.0422
3333.50,0.0422
3333.00,0.0422
3332.50,0.0422
3332.00,0.0422
3331.50,0.0422
3331.00,0.0422
3330.50,0.0422
3330.00,0.0422
3329.50,0.0422
3329.00,0.0422
3328.50,0.0422
3328.00,0.0421
3327.50,0.0421
3327.00,0.0420
3326.50,0.0420
3326.00,0.0419
3325.50,0.0419
3325.00,0.0420
3324.50,0.0420
3324.00,0.0420
3323.50,0.0421
3323.00,0.0421
3322.50,0.0421
3322.00,0.0421
3321.50,0.0421
3321.00,0.0421
3320.50,0.0421
3320.00,0.0420
3319.50,0.0420
3319.00,0.0420
3318.50,0.0420
3318.00,0.0420
3317.50,0.0420
3317.00,0.0420
3316.50,0.0420
3316.00,0.0420
3315.50,0.0420
3315.00,0.0420
3314.50,0.0419
3314.00,0.0419
3313.50,0.0419
3313.00,0.0419
3312.50,0.0419
3312.00,0.0419
3311.50,0.0419
3311.00,0.0419
3310.50,0.0418
3310.00,0.0418
3309.50,0.0417
3309.00,0.0417
3308.50,0.0417
3308.00,0.0417
3307.50,0.0417
3307.00,0.0417
3306.50,0.0417
3306.00,0.0417
3305.50,0.0417
3305.00,0.0417
3304.50,0.0417
3304.00,0.0418
3303.50,0.0418
3303.00,0.0418
3302.50,0.0419
3302.00,0.0419
3301.50,0.0419
3301.00,0.0419
3300.50,0.0419
3300.00,0.0419
3299.50,0.0419
3299.00,0.0419
3298.50,0.0419
3298.00,0.0418
3297.50,0.0418
3297.00,0.0417
3296.50,0.0417
3296.00,0.0417
3295.50,0.0417
3295.00,0.0417
3294.50,0.0417
3294.00,0.0417
3293.50,0.0417
3293.00,0.0417
3292.50,0.0417
3292.00,0.0416
3291.50,0.0417
3291.00,0.0417
3290.50,0.0418
3290.00,0.0418
3289.50,0.0418
3289.00,0.0418
3288.50,0.0418
3288.00,0.0418
3287.50,0.0418
3287.00,0.0418
3286.50,0.0418
3286.00,0.0418
3285.50,0.0418
3285.00,0.0418
3284.50,0.0418
3284.00,0.0418
3283.50,0.0418
3283.00,0.0418
3282.50,0.0418
3282.00,0.0418
3281.50,0.0418
3281.00,0.0418
3280.50,0.0418
3280.00,0.0418
3279.50,0.0418
3279.00,0.0418
3278.50,0.0418
3278.00,0.0418
3277.50,0.0418
3277.00,0.0418
3276.50,0.0418
3276.00,0.0417
3275.50,0.0417
3275.00,0.0417
3274.50,0.0417
3274.00,0.0417
3273.50,0.0417
3273.00,0.0417
3272.50,0.0417
3272.00,0.0416
3271.50,0.0416
3271.00,0.0416
3270.50,0.0416
3270.00,0.0416
3269.50,0.0417
3269.00,0.0417
3268.50,0.0418
3268.00,0.0418
3267.50,0.0418
3267.00,0.0418
3266.50,0.0418
3266.00,0.0418
3265.50,0.0419
3265.00,0.0419
3264.50,0.0419
3264.00,0.0419
3263.50,0.0419
3263.00,0.0418
3262.50,0.0419
3262.00,0.0419
3261.50,0.0418
3261.00,0.0418
3260.50,0.0418
3260.00,0.0418
3259.50,0.0418
3259.00,0.0418
3258.50,0.0418
3258.00,0.0418
3257.50,0.0418
3257.00,0.0418
3256.50,0.0417
3256.00,0.0417
3255.50,0.0418
3255.00,0.0418
3254.50,0.0418
3254.00,0.0419
3253.50,0.0419
3253.00,0.0419
3252.50,0.0419
3252.00,0.0419
3251.50,0.0419
3251.00,0.0419
3250.50,0.0419
3250.00,0.0419
3249.50,0.0419
3249.00,0.0418
3248.50,0.0418
3248.00,0.0418
3247.50,0.0417
3247.00,0.0417
3246.50,0.0418
3246.00,0.0418
3245.50,0.0418
3245.00,0.0419
3244.50,0.0419
3244.00,0.0419
3243.50,0.0419
3243.00,0.0419
3242.50,0.0420
3242.00,0.0420
3241.50,0.0420
3241.00,0.0420
3240.50,0.0420
3240.00,0.0420
3239.50,0.0420
3239.00,0.0420
3238.50,0.0420
3238.00,0.0420
3237.50,0.0420
3237.00,0.0420
3236.50,0.0419
3236.00,0.0419
3235.50,0.0419
3235.00,0.0419
3234.50,0.0418
3234.00,0.0418
3233.50,0.0418
3233.00,0.0418
3232.50,0.0419
3232.00,0.0419
3231.50,0.0420
3231.00,0.0420
3230.50,0.0420
3230.00,0.0421
3229.50,0.0421
3229.00,0.0421
3228.50,0.0421
3228.00,0.0421
3227.50,0.0421
3227.00,0.0421
3226.50,0.0421
3226.00,0.0421
3225.50,0.0421
3225.00,0.0421
3224.50,0.0421
3224.00,0.0421
3223.50,0.0421
3223.00,0.0421
3222.50,0.0421
3222.00,0.0421
3221.50,0.0422
3221.00,0.0422
3220.50,0.0422
3220.00,0.0421
3219.50,0.0421
3219.00,0.0421
3218.50,0.0422
3218.00,0.0422
3217.50,0.0422
3217.00,0.0422
3216.50,0.0422
3216.00,0.0422
3215.50,0.0422
3215.00,0.0422
3214.50,0.0422
3214.00,0.0422
3213.50,0.0422
3213.00,0.0422
3212.50,0.0423
3212.00,0.0423
3211.50,0.0423
3211.00,0.0423
3210.50,0.0423
3210.00,0.0423
3209.50,0.0423
3209.00,0.0423
3208.50,0.0423
3208.00,0.0423
3207.50,0.0423
3207.00,0.0423
3206.50,0.0423
3206.00,0.0423
3205.50,0.0424
3205.00,0.0424
3204.50,0.0424
3204.00,0.0424
3203.50,0.0424
3203.00,0.0424
3202.50,0.0424
3202.00,0.0424
3201.50,0.0425
3201.00,0.0425
3200.50,0.0425
3200.00,0.0425
3199.50,0.0425
3199.00,0.0425
3198.50,0.0426
3198.00,0.0426
3197.50,0.0426
3197.00,0.0426
3196.50,0.0426
3196.00,0.0426
3195.50,0.0426
3195.00,0.0427
3194.50,0.0427
3194.00,0.0427
3193.50,0.0427
3193.00,0.0427
3192.50,0.0427
3192.00,0.0428
3191.50,0.0428
3191.00,0.0428
3190.50,0.0428
3190.00,0.0429
3189.50,0.0429
3189.00,0.0429
3188.50,0.0429
3188.00,0.0429
3187.50,0.0430
3187.00,0.0430
3186.50,0.0430
3186.00,0.0430
3185.50,0.0430
3185.00,0.0430
3184.50,0.0430
3184.00,0.0430
3183.50,0.0431
3183.00,0.0431
3182.50,0.0430
3182.00,0.0430
3181.50,0.0430
3181.00,0.0430
3180.50,0.0430
3180.00,0.0430
3179.50,0.0430
3179.00,0.0430
3178.50,0.0430
3178.00,0.0430
3177.50,0.0430
3177.00,0.0430
3176.50,0.0430
3176.00,0.0430
3175.50,0.0430
3175.00,0.0430
3174.50,0.0430
3174.00,0.0431
3173.50,0.0431
3173.00,0.0431
3172.50,0.0431
3172.00,0.0431
3171.50,0.0431
3171.00,0.0431
3170.50,0.0432
3170.00,0.0432
3169.50,0.0432
3169.00,0.0432
3168.50,0.0432
3168.00,0.0432
3167.50,0.0433
3167.00,0.0433
3166.50,0.0433
3166.00,0.0433
3165.50,0.0433
3165.00,0.0433
3164.50,0.0434
3164.00,0.0434
3163.50,0.0434
3163.00,0.0434
3162.50,0.0435
3162.00,0.0435
3161.50,0.0435
3161.00,0.0435
3160.50,0.0436
3160.00,0.0436
3159.50,0.0436
3159.00,0.0436
3158.50,0.0437
3158.00,0.0437
3157.50,0.0437
3157.00,0.0437
3156.50,0.0437
3156.00,0.0437
3155.50,0.0438
3155.00,0.0438
3154.50,0.0438
3154.00,0.0438
3153.50,0.0438
3153.00,0.0437
3152.50,0.0438
3152.00,0.0438
3151.50,0.0439
3151.00,0.0440
3150.50,0.0440
3150.00,0.0441
3149.50,0.0442
3149.00,0.0442
3148.50,0.0442
3148.00,0.0443
3147.50,0.0443
3147.00,0.0444
3146.50,0.0444
3146.00,0.0445
3145.50,0.0445
3145.00,0.0445
3144.50,0.0446
3144.00,0.0446
3143.50,0.0446
3143.00,0.0447
3142.50,0.0447
3142.00,0.0447
3141.50,0.0448
3141.00,0.0448
3140.50,0.0448
3140.00,0.0448
3139.50,0.0448
3139.00,0.0449
3138.50,0.0449
3138.00,0.0450
3137.50,0.0451
3137.00,0.0452
3136.50,0.0453
3136.00,0.0454
3135.50,0.0455
3135.00,0.0456
3134.50,0.0456
3134.00,0.0457
3133.50,0.0457
3133.00,0.0458
3132.50,0.0458
3132.00,0.0459
3131.50,0.0459
3131.00,0.0459
3130.50,0.0460
3130.00,0.0460
3129.50,0.0461
3129.00,0.0462
3128.50,0.0463
3128.00,0.0464
3127.50,0.0464
3127.00,0.0465
3126.50,0.0466
3126.00,0.0466
3125.50,0.0467
3125.00,0.0468
3124.50,0.0468
3124.00,0.0469
3123.50,0.0469
3123.00,0.0469
3122.50,0.0469
3122.00,0.0469
3121.50,0.0469
3121.00,0.0470
3120.50,0.0470
3120.00,0.0470
3119.50,0.0471
3119.00,0.0472
3118.50,0.0472
3118.00,0.0472
3117.50,0.0473
3117.00,0.0473
3116.50,0.0473
3116.00,0.0474
3115.50,0.0474
3115.00,0.0475
3114.50,0.0476
3114.00,0.0477
3113.50,0.0477
3113.00,0.0478
3112.50,0.0478
3112.00,0.0479
3111.50,0.0479
3111.00,0.0479
3110.50,0.0479
3110.00,0.0479
3109.50,0.0479
3109.00,0.0478
3108.50,0.0479
3108.00,0.0479
3107.50,0.0480
3107.00,0.0480
3106.50,0.0481
3106.00,0.0481
3105.50,0.0481
3105.00,0.0481
3104.50,0.0482
3104.00,0.0482
3103.50,0.0482
3103.00,0.0482
3102.50,0.0482
3102.00,0.0481
3101.50,0.0481
3101.00,0.0481
3100.50,0.0480
3100.00,0.0481
3099.50,0.0481
3099.00,0.0481
3098.50,0.0482
3098.00,0.0482
3097.50,0.0482
3097.00,0.0483
3096.50,0.0483
3096.00,0.0483
3095.50,0.0483
3095.00,0.0483
3094.50,0.0483
3094.00,0.0483
3093.50,0.0483
3093.00,0.0482
3092.50,0.0482
3092.00,0.0482
3091.50,0.0481
3091.00,0.0481
3090.50,0.0481
3090.00,0.0481
3089.50,0.0482
3089.00,0.0482
3088.50,0.0482
3088.00,0.0483
3087.50,0.0482
3087.00,0.0483
3086.50,0.0483
3086.00,0.0483
3085.50,0.0483
3085.00,0.0483
3084.50,0.0483
3084.00,0.0483
3083.50,0.0483
3083.00,0.0484
3082.50,0.0484
3082.00,0.0484
3081.50,0.0484
3081.00,0.0484
3080.50,0.0484
3080.00,0.0485
3079.50,0.0485
3079.00,0.0485
3078.50,0.0486
3078.00,0.0486
3077.50,0.0487
3077.00,0.0488
3076.50,0.0489
3076.00,0.0489
3075.50,0.0490
3075.00,0.0491
3074.50,0.0492
3074.00,0.0492
3073.50,0.0493
3073.00,0.0493
3072.50,0.0494
3072.00,0.0494
3071.50,0.0495
3071.00,0.0495
3070.50,0.0496
3070.00,0.0497
3069.50,0.0497
3069.00,0.0497
3068.50,0.0497
3068.00,0.0498
3067.50,0.0498
3067.00,0.0499
3066.50,0.0500
3066.00,0.0502
3065.50,0.0503
3065.00,0.0505
3064.50,0.0506
3064.00,0.0507
3063.50,0.0508
3063.00,0.0509
3062.50,0.0511
3062.00,0.0513
3061.50,0.0515
3061.00,0.0516
3060.50,0.0518
3060.00,0.0520
3059.50,0.0522
3059.00,0.0523
3058.50,0.0525
3058.00,0.0527
3057.50,0.0528
3057.00,0.0530
3056.50,0.0532
3056.00,0.0533
3055.50,0.0535
3055.00,0.0536
3054.50,0.0538
3054.00,0.0539
3053.50,0.0540
3053.00,0.0540
3052.50,0.0540
3052.00,0.0539
3051.50,0.0538
3051.00,0.0537
3050.50,0.0536
3050.00,0.0535
3049.50,0.0533
3049.00,0.0532
3048.50,0.0530
3048.00,0.0528
3047.50,0.0525
3047.00,0.0523
3046.50,0.0521
3046.00,0.0518
3045.50,0.0517
3045.00,0.0515
3044.50,0.0514
3044.00,0.0513
3043.50,0.0512
3043.00,0.0510
3042.50,0.0510
3042.00,0.0509
3041.50,0.0509
3041.00,0.0508
3040.50,0.0508
3040.00,0.0508
3039.50,0.0508
3039.00,0.0508
3038.50,0.0508
3038.00,0.0508
3037.50,0.0507
3037.00,0.0507
3036.50,0.0506
3036.00,0.0506
3035.50,0.0505
3035.00,0.0505
3034.50,0.0505
3034.00,0.0505
3033.50,0.0505
3033.00,0.0506
3032.50,0.0506
3032.00,0.0507
3031.50,0.0507
3031.00,0.0507
3030.50,0.0507
3030.00,0.0508
3029.50,0.0508
3029.00,0.0509
3028.50,0.0510
3028.00,0.0511
3027.50,0.0511
3027.00,0.0512
3026.50,0.0512
3026.00,0.0513
3025.50,0.0513
3025.00,0.0514
3024.50,0.0515
3024.00,0.0516
3023.50,0.0518
3023.00,0.0519
3022.50,0.0520
3022.00,0.0522
3021.50,0.0523
3021.00,0.0524
3020.50,0.0525
3020.00,0.0527
3019.50,0.0528
3019.00,0.0530
3018.50,0.0531
3018.00,0.0533
3017.50,0.0534
3017.00,0.0535
3016.50,0.0536
3016.00,0.0537
3015.50,0.0539
3015.00,0.0539
3014.50,0.0540
3014.00,0.0541
3013.50,0.0543
3013.00,0.0544
3012.50,0.0545
3012.00,0.0546
3011.50,0.0547
3011.00,0.0548
3010.50,0.0550
3010.00,0.0552
3009.50,0.0554
3009.00,0.0556
3008.50,0.0558
3008.00,0.0559
3007.50,0.0561
3007.00,0.0563
3006.50,0.0565
3006.00,0.0568
3005.50,0.0570
3005.00,0.0572
3004.50,0.0575
3004.00,0.0578
3003.50,0.0581
3003.00,0.0584
3002.50,0.0588
3002.00,0.0591
3001.50,0.0595
3001.00,0.0599
3000.50,0.0603
3000.00,0.0607
2999.50,0.0611
2999.00,0.0616
2998.50,0.0621
2998.00,0.0626
2997.50,0.0631
2997.00,0.0637
2996.50,0.0644
2996.00,0.0651
2995.50,0.0658
2995.00,0.0665
2994.50,0.0672
2994.00,0.0680
2993.50,0.0688
2993.00,0.0697
2992.50,0.0706
2992.00,0.0716
2991.50,0.0727
2991.00,0.0739
2990.50,0.0751
2990.00,0.0764
2989.50,0.0777
2989.00,0.0791
2988.50,0.0806
2988.00,0.0822
2987.50,0.0839
2987.00,0.0858
2986.50,0.0877
2986.00,0.0897
2985.50,0.0919
2985.00,0.0942
2984.50,0.0967
2984.00,0.0994
2983.50,0.1022
2983.00,0.1052
2982.50,0.1084
2982.00,0.1119
2981.50,0.1156
2981.00,0.1196
2980.50,0.1239
2980.00,0.1286
2979.50,0.1335
2979.00,0.1389
2978.50,0.1447
2978.00,0.1509
2977.50,0.1576
2977.00,0.1648
2976.50,0.1724
2976.00,0.1806
2975.50,0.1894
2975.00,0.1988
2974.50,0.2089
2974.00,0.2197
2973.50,0.2312
2973.00,0.2433
2972.50,0.2562
2972.00,0.2697
2971.50,0.2839
2971.00,0.2987
2970.50,0.3141
2970.00,0.3300
2969.50,0.3463
2969.00,0.3628
2968.50,0.3794
2968.00,0.3960
2967.50,0.4122
2967.00,0.4277
2966.50,0.4425
2966.00,0.4562
2965.50,0.4683
2965.00,0.4786
2964.50,0.4869
2964.00,0.4929
2963.50,0.4962
2963.00,0.4969
2962.50,0.4950
2962.00,0.4904
2961.50,0.4832
2961.00,0.4735
2960.50,0.4617
2960.00,0.4481
2959.50,0.4329
2959.00,0.4166
2958.50,0.3995
2958.00,0.3819
2957.50,0.3643
2957.00,0.3467
2956.50,0.3296
2956.00,0.3130
2955.50,0.2970
2955.00,0.2817
2954.50,0.2672
2954.00,0.2536
2953.50,0.2408
2953.00,0.2289
2952.50,0.2180
2952.00,0.2079
2951.50,0.1985
2951.00,0.1898
2950.50,0.1818
2950.00,0.1743
2949.50,0.1673
2949.00,0.1608
2948.50,0.1547
2948.00,0.1491
2947.50,0.1438
2947.00,0.1389
2946.50,0.1344
2946.00,0.1302
2945.50,0.1263
2945.00,0.1226
2944.50,0.1192
2944.00,0.1160
2943.50,0.1131
2943.00,0.1104
2942.50,0.1079
2942.00,0.1055
2941.50,0.1033
2941.00,0.1012
2940.50,0.0993
2940.00,0.0975
2939.50,0.0957
2939.00,0.0941
2938.50,0.0926
2938.00,0.0912
2937.50,0.0898
2937.00,0.0885
2936.50,0.0873
2936.00,0.0862
2935.50,0.0851
2935.00,0.0841
2934.50,0.0832
2934.00,0.0823
2933.50,0.0815
2933.00,0.0807
2932.50,0.0799
2932.00,0.0792
2931.50,0.0785
2931.00,0.0779
2930.50,0.0773
2930.00,0.0767
2929.50,0.0763
2929.00,0.0759
2928.50,0.0756
2928.00,0.0753
2927.50,0.0750
2927.00,0.0747
2926.50,0.0745
2926.00,0.0742
2925.50,0.0741
2925.00,0.0739
2924.50,0.0738
2924.00,0.0738
2923.50,0.0738
2923.00,0.0738
2922.50,0.0738
2922.00,0.0739
2921.50,0.0741
2921.00,0.0743
2920.50,0.0745
2920.00,0.0748
2919.50,0.0751
2919.00,0.0754
2918.50,0.0759
2918.00,0.0764
2917.50,0.0770
2917.00,0.0777
2916.50,0.0784
2916.00,0.0792
2915.50,0.0801
2915.00,0.0811
2914.50,0.0822
2914.00,0.0833
2913.50,0.0846
2913.00,0.0860
2912.50,0.0875
2912.00,0.0890
2911.50,0.0907
2911.00,0.0923
2910.50,0.0940
2910.00,0.0958
2909.50,0.0975
2909.00,0.0992
2908.50,0.1008
2908.00,0.1023
2907.50,0.1036
2907.00,0.1048
2906.50,0.1058
2906.00,0.1065
2905.50,0.1070
2905.00,0.1073
2904.50,0.1073
2904.00,0.1070
2903.50,0.1065
2903.00,0.1058
2902.50,0.1048
2902.00,0.1037
2901.50,0.1024
2901.00,0.1009
2900.50,0.0994
2900.00,0.0977
2899.50,0.0960
2899.00,0.0943
2898.50,0.0925
2898.00,0.0908
2897.50,0.0890
2897.00,0.0873
2896.50,0.0856
2896.00,0.0840
2895.50,0.0825
2895.00,0.0811
2894.50,0.0797
2894.00,0.0784
2893.50,0.0771
2893.00,0.0759
2892.50,0.0748
2892.00,0.0737
2891.50,0.0727
2891.00,0.0717
2890.50,0.0708
2890.00,0.0700
2889.50,0.0692
2889.00,0.0684
2888.50,0.0677
2888.00,0.0670
2887.50,0.0663
2887.00,0.0657
2886.50,0.0651
2886.00,0.0645
2885.50,0.0640
2885.00,0.0635
2884.50,0.0630
2884.00,0.0626
2883.50,0.0621
2883.00,0.0617
2882.50,0.0613
2882.00,0.0609
2881.50,0.0606
2881.00,0.0602
2880.50,0.0599
2880.00,0.0596
2879.50,0.0592
2879.00,0.0589
2878.50,0.0587
2878.00,0.0584
2877.50,0.0581
2877.00,0.0578
2876.50,0.0575
2876.00,0.0573
2875.50,0.0570
2875.00,0.0567
2874.50,0.0564
2874.00,0.0561
2873.50,0.0559
2873.00,0.0557
2872.50,0.0555
2872.00,0.0554
2871.50,0.0552
2871.00,0.0550
2870.50,0.0549
2870.00,0.0547
2869.50,0.0545
2869.00,0.0544
2868.50,0.0542
2868.00,0.0540
2867.50,0.0539
2867.00,0.0537
2866.50,0.0536
2866.00,0.0534
2865.50,0.0533
2865.00,0.0532
2864.50,0.0531
2864.00,0.0530
2863.50,0.0529
2863.00,0.0528
2862.50,0.0527
2862.00,0.0526
2861.50,0.0525
2861.00,0.0523
2860.50,0.0522
2860.00,0.0522
2859.50,0.0521
2859.00,0.0521
2858.50,0.0521
2858.00,0.0521
2857.50,0.0520
2857.00,0.0520
2856.50,0.0520
2856.00,0.0519
2855.50,0.0519
2855.00,0.0519
2854.50,0.0518
2854.00,0.0518
2853.50,0.0518
2853.00,0.0517
2852.50,0.0517
2852.00,0.0517
2851.50,0.0516
2851.00,0.0516
2850.50,0.0516
2850.00,0.0516
2849.50,0.0515
2849.00,0.0514
2848.50,0.0513
2848.00,0.0513
2847.50,0.0512
2847.00,0.0512
2846.50,0.0511
2846.00,0.0511
2845.50,0.0511
2845.00,0.0510
2844.50,0.0510
2844.00,0.0509
2843.50,0.0509
2843.00,0.0508
2842.50,0.0508
2842.00,0.0507
2841.50,0.0507
2841.00,0.0506
2840.50,0.0505
2840.00,0.0504
2839.50,0.0503
2839.00,0.0503
2838.50,0.0502
2838.00,0.0502
2837.50,0.0502
2837.00,0.0502
2836.50,0.0501
2836.00,0.0501
2835.50,0.0500
2835.00,0.0499
2834.50,0.0499
2834.00,0.0498
2833.50,0.0498
2833.00,0.0497
2832.50,0.0496
2832.00,0.0496
2831.50,0.0495
2831.00,0.0495
2830.50,0.0494
2830.00,0.0494
2829.50,0.0494
2829.00,0.0493
2828.50,0.0493
2828.00,0.0493
2827.50,0.0492
2827.00,0.0492
2826.50,0.0492
2826.00,0.0492
2825.50,0.0491
2825.00,0.0491
2824.50,0.0491
2824.00,0.0491
2823.50,0.0491
2823.00,0.0491
2822.50,0.0491
2822.00,0.0491
2821.50,0.0492
2821.00,0.0492
2820.50,0.0492
2820.00,0.0492
2819.50,0.0493
2819.00,0.0493
2818.50,0.0493
2818.00,0.0493
2817.50,0.0494
2817.00,0.0494
2816.50,0.0494
2816.00,0.0495
2815.50,0.0495
2815.00,0.0495
2814.50,0.0495
2814.00,0.0495
2813.50,0.0496
2813.00,0.0496
2812.50,0.0496
2812.00,0.0496
2811.50,0.0495
2811.00,0.0495
2810.50,0.0495
2810.00,0.0495
2809.50,0.0495
2809.00,0.0495
2808.50,0.0495
2808.00,0.0495
2807.50,0.0495
2807.00,0.0495
2806.50,0.0495
2806.00,0.0494
2805.50,0.0494
2805.00,0.0494
2804.50,0.0494
2804.00,0.0493
2803.50,0.0493
2803.00,0.0493
2802.50,0.0493
2802.00,0.0492
2801.50,0.0492
2801.00,0.0492
2800.50,0.0492
2800.00,0.0491
2799.50,0.0491
2799.00,0.0490
2798.50,0.0490
2798.00,0.0490
2797.50,0.0489
2797.00,0.0489
2796.50,0.0489
2796.00,0.0488
2795.50,0.0487
2795.00,0.0487
2794.50,0.0486
2794.00,0.0486
2793.50,0.0485
2793.00,0.0484
2792.50,0.0483
2792.00,0.0481
2791.50,0.0480
2791.00,0.0479
2790.50,0.0478
2790.00,0.0476
2789.50,0.0474
2789.00,0.0472
2788.50,0.0471
2788.00,0.0469
2787.50,0.0468
2787.00,0.0466
2786.50,0.0464
2786.00,0.0462
2785.50,0.0460
2785.00,0.0459
2784.50,0.0457
2784.00,0.0455
2783.50,0.0453
2783.00,0.0451
2782.50,0.0449
2782.00,0.0448
2781.50,0.0446
2781.00,0.0444
2780.50,0.0443
2780.00,0.0441
2779.50,0.0439
2779.00,0.0438
2778.50,0.0436
2778.00,0.0435
2777.50,0.0433
2777.00,0.0432
2776.50,0.0430
2776.00,0.0429
2775.50,0.0427
2775.00,0.0426
2774.50,0.0425
2774.00,0.0424
2773.50,0.0423
2773.00,0.0423
2772.50,0.0422
2772.00,0.0421
2771.50,0.0420
2771.00,0.0419
2770.50,0.0418
2770.00,0.0418
2769.50,0.0417
2769.00,0.0416
2768.50,0.0415
2768.00,0.0415
2767.50,0.0414
2767.00,0.0413
2766.50,0.0413
2766.00,0.0412
2765.50,0.0411
2765.00,0.0411
2764.50,0.0410
2764.00,0.0410
2763.50,0.0409
2763.00,0.0409
2762.50,0.0408
2762.00,0.0408
2761.50,0.0407
2761.00,0.0407
2760.50,0.0406
2760.00,0.0406
2759.50,0.0406
2759.00,0.0405
2758.50,0.0405
2758.00,0.0405
2757.50,0.0404
2757.00,0.0404
2756.50,0.0403
2756.00,0.0403
2755.50,0.0403
2755.00,0.0403
2754.50,0.0402
2754.00,0.0402
2753.50,0.0402
2753.00,0.0402
2752.50,0.0401
2752.00,0.0401
2751.50,0.0400
2751.00,0.0400
2750.50,0.0399
2750.00,0.0399
2749.50,0.0399
2749.00,0.0399
2748.50,0.0398
2748.00,0.0398
2747.50,0.0398
2747.00,0.0398
2746.50,0.0398
2746.00,0.0398
2745.50,0.0397
2745.00,0.0397
2744.50,0.0397
2744.00,0.0397
2743.50,0.0397
2743.00,0.0396
2742.50,0.0396
2742.00,0.0396
2741.50,0.0396
2741.00,0.0395
2740.50,0.0395
2740.00,0.0395
2739.50,0.0395
2739.00,0.0395
2738.50,0.0394
2738.00,0.0394
2737.50,0.0394
2737.00,0.0394
2736.50,0.0394
2736.00,0.0394
2735.50,0.0394
2735.00,0.0394
2734.50,0.0393
2734.00,0.0393
2733.50,0.0393
2733.00,0.0393
2732.50,0.0393
2732.00,0.0393
2731.50,0.0393
2731.00,0.0393
2730.50,0.0393
2730.00,0.0393
2729.50,0.0393
2729.00,0.0392
2728.50,0.0392
2728.00,0.0392
2727.50,0.0391
2727.00,0.0391
2726.50,0.0391
2726.00,0.0391
2725.50,0.0391
2725.00,0.0391
2724.50,0.0391
2724.00,0.0391
2723.50,0.0391
2723.00,0.0391
2722.50,0.0391
2722.00,0.0391
2721.50,0.0391
2721.00,0.0391
2720.50,0.0391
2720.00,0.0391
2719.50,0.0391
2719.00,0.0391
2718.50,0.0391
2718.00,0.0391
2717.50,0.0391
2717.00,0.0391
2716.50,0.0391
2716.00,0.0391
2715.50,0.0391
2715.00,0.0391
2714.50,0.0391
2714.00,0.0391
2713.50,0.0391
2713.00,0.0391
2712.50,0.0391
2712.00,0.0391
2711.50,0.0391
2711.00,0.0390
2710.50,0.0390
2710.00,0.0390
2709.50,0.0390
2709.00,0.0391
2708.50,0.0391
2708.00,0.0391
2707.50,0.0391
2707.00,0.0391
2706.50,0.0391
2706.00,0.0391
2705.50,0.0391
2705.00,0.0390
2704.50,0.0390
2704.00,0.0390
2703.50,0.0390
2703.00,0.0390
2702.50,0.0390
2702.00,0.0390
2701.50,0.0390
2701.00,0.0390
2700.50,0.0390
2700.00,0.0390
2699.50,0.0390
2699.00,0.0390
2698.50,0.0390
2698.00,0.0390
2697.50,0.0390
2697.00,0.0390
2696.50,0.0389
2696.00,0.0389
2695.50,0.0389
2695.00,0.0389
2694.50,0.0389
2694.00,0.0389
2693.50,0.0389
2693.00,0.0389
2692.50,0.0389
2692.00,0.0389
2691.50,0.0389
2691.00,0.0389
2690.50,0.0389
2690.00,0.0389
2689.50,0.0389
2689.00,0.0389
2688.50,0.0389
2688.00,0.0389
2687.50,0.0389
2687.00,0.0389
2686.50,0.0389
2686.00,0.0389
2685.50,0.0389
2685.00,0.0389
2684.50,0.0389
2684.00,0.0390
2683.50,0.0390
2683.00,0.0390
2682.50,0.0390
2682.00,0.0390
2681.50,0.0390
2681.00,0.0390
2680.50,0.0390
2680.00,0.0390
2679.50,0.0391
2679.00,0.0391
2678.50,0.0391
2678.00,0.0392
2677.50,0.0392
2677.00,0.0392
2676.50,0.0393
2676.00,0.0393
2675.50,0.0394
2675.00,0.0394
2674.50,0.0394
2674.00,0.0395
2673.50,0.0395
2673.00,0.0395
2672.50,0.0396
2672.00,0.0396
2671.50,0.0397
2671.00,0.0397
2670.50,0.0398
2670.00,0.0398
2669.50,0.0398
2669.00,0.0399
2668.50,0.0399
2668.00,0.0399
2667.50,0.0400
2667.00,0.0400
2666.50,0.0400
2666.00,0.0400
2665.50,0.0400
2665.00,0.0401
2664.50,0.0401
2664.00,0.0401
2663.50,0.0401
2663.00,0.0401
2662.50,0.0401
2662.00,0.0401
2661.50,0.0401
2661.00,0.0401
2660.50,0.0401
2660.00,0.0400
2659.50,0.0400
2659.00,0.0400
2658.50,0.0400
2658.00,0.0400
2657.50,0.0399
2657.00,0.0399
2656.50,0.0398
2656.00,0.0398
2655.50,0.0398
2655.00,0.0397
2654.50,0.0397
2654.00,0.0396
2653.50,0.0396
2653.00,0.0395
2652.50,0.0395
2652.00,0.0395
2651.50,0.0394
2651.00,0.0394
2650.50,0.0393
2650.00,0.0393
2649.50,0.0392
2649.00,0.0391
2648.50,0.0391
2648.00,0.0390
2647.50,0.0390
2647.00,0.0389
2646.50,0.0389
2646.00,0.0389
2645.50,0.0388
2645.00,0.0388
2644.50,0.0388
2644.00,0.0387
2643.50,0.0387
2643.00,0.0386
2642.50,0.0386
2642.00,0.0386
2641.50,0.0385
2641.00,0.0385
2640.50,0.0384
2640.00,0.0384
2639.50,0.0384
2639.00,0.0383
2638.50,0.0383
2638.00,0.0383
2637.50,0.0382
2637.00,0.0382
2636.50,0.0382
2636.00,0.0382
2635.50,0.0382
2635.00,0.0381
2634.50,0.0381
2634.00,0.0381
2633.50,0.0380
2633.00,0.0380
2632.50,0.0380
2632.00,0.0380
2631.50,0.0380
2631.00,0.0380
2630.50,0.0379
2630.00,0.0379
2629.50,0.0379
2629.00,0.0379
2628.50,0.0379
2628.00,0.0378
2627.50,0.0378
2627.00,0.0378
2626.50,0.0378
2626.00,0.0378
2625.50,0.0377
2625.00,0.0377
2624.50,0.0377
2624.00,0.0377
2623.50,0.0377
2623.00,0.0377
2622.50,0.0377
2622.00,0.0377
2621.50,0.0377
2621.00,0.0377
2620.50,0.0377
2620.00,0.0376
2619.50,0.0376
2619.00,0.0376
2618.50,0.0376
2618.00,0.0376
2617.50,0.0376
2617.00,0.0376
2616.50,0.0376
2616.00,0.0376
2615.50,0.0376
2615.00,0.0376
2614.50,0.0376
2614.00,0.0376
2613.50,0.0376
2613.00,0.0376
2612.50,0.0375
2612.00,0.0375
2611.50,0.0375
2611.00,0.0375
2610.50,0.0375
2610.00,0.0375
2609.50,0.0375
2609.00,0.0375
2608.50,0.0375
2608.00,0.0375
2607.50,0.0375
2607.00,0.0375
2606.50,0.0375
2606.00,0.0374
2605.50,0.0374
2605.00,0.0374
2604.50,0.0374
2604.00,0.0374
2603.50,0.0374
2603.00,0.0374
2602.50,0.0374
2602.00,0.0374
2601.50,0.0374
2601.00,0.0374
2600.50,0.0374
2600.00,0.0374
2599.50,0.0373
2599.00,0.0373
2598.50,0.0373
2598.00,0.0373
2597.50,0.0373
2597.00,0.0373
2596.50,0.0373
2596.00,0.0373
2595.50,0.0373
2595.00,0.0373
2594.50,0.0373
2594.00,0.0373
2593.50,0.0373
2593.00,0.0373
2592.50,0.0373
2592.00,0.0373
2591.50,0.0373
2591.00,0.0373
2590.50,0.0373
2590.00,0.0373
2589.50,0.0372
2589.00,0.0372
2588.50,0.0372
2588.00,0.0372
2587.50,0.0372
2587.00,0.0372
2586.50,0.0372
2586.00,0.0372
2585.50,0.0372
2585.00,0.0372
2584.50,0.0372
2584.00,0.0372
2583.50,0.0372
2583.00,0.0372
2582.50,0.0372
2582.00,0.0372
2581.50,0.0372
2581.00,0.0372
2580.50,0.0372
2580.00,0.0372
2579.50,0.0372
2579.00,0.0372
2578.50,0.0372
2578.00,0.0372
2577.50,0.0372
2577.00,0.0372
2576.50,0.0372
2576.00,0.0371
2575.50,0.0371
2575.00,0.0371
2574.50,0.0371
2574.00,0.0371
2573.50,0.0371
2573.00,0.0371
2572.50,0.0371
2572.00,0.0371
2571.50,0.0371
2571.00,0.0371
2570.50,0.0371
2570.00,0.0371
2569.50,0.0371
2569.00,0.0371
2568.50,0.0371
2568.00,0.0371
2567.50,0.0371
2567.00,0.0370
2566.50,0.0370
2566.00,0.0370
2565.50,0.0370
2565.00,0.0370
2564.50,0.0370
2564.00,0.0370
2563.50,0.0370
2563.00,0.0370
2562.50,0.0370
2562.00,0.0370
2561.50,0.0370
2561.00,0.0371
2560.50,0.0371
2560.00,0.0370
2559.50,0.0370
2559.00,0.0370
2558.50,0.0370
2558.00,0.0370
2557.50,0.0370
2557.00,0.0370
2556.50,0.0370
2556.00,0.0370
2555.50,0.0370
2555.00,0.0370
2554.50,0.0370
2554.00,0.0370
2553.50,0.0370
2553.00,0.0370
2552.50,0.0370
2552.00,0.0370
2551.50,0.0370
2551.00,0.0370
2550.50,0.0370
2550.00,0.0370
2549.50,0.0370
2549.00,0.0370
2548.50,0.0369
2548.00,0.0369
2547.50,0.0369
2547.00,0.0369
2546.50,0.0369
2546.00,0.0369
2545.50,0.0369
2545.00,0.0369
2544.50,0.0369
2544.00,0.0369
2543.50,0.0368
2543.00,0.0368
2542.50,0.0368
2542.00,0.0368
2541.50,0.0368
2541.00,0.0368
2540.50,0.0368
2540.00,0.0368
2539.50,0.0368
2539.00,0.0368
2538.50,0.0368
2538.00,0.0368
2537.50,0.0367
2537.00,0.0367
2536.50,0.0367
2536.00,0.0367
2535.50,0.0367
2535.00,0.0367
2534.50,0.0367
2534.00,0.0367
2533.50,0.0367
2533.00,0.0367
2532.50,0.0367
2532.00,0.0367
2531.50,0.0367
2531.00,0.0367
2530.50,0.0367
2530.00,0.0367
2529.50,0.0367
2529.00,0.0367
2528.50,0.0367
2528.00,0.0367
2527.50,0.0367
2527.00,0.0367
2526.50,0.0367
2526.00,0.0367
2525.50,0.0367
2525.00,0.0367
2524.50,0.0367
2524.00,0.0367
2523.50,0.0367
2523.00,0.0367
2522.50,0.0368
2522.00,0.0368
2521.50,0.0368
2521.00,0.0368
2520.50,0.0368
2520.00,0.0368
2519.50,0.0368
2519.00,0.0368
2518.50,0.0368
2518.00,0.0368
2517.50,0.0369
2517.00,0.0369
2516.50,0.0369
2516.00,0.0369
2515.50,0.0369
2515.00,0.0369
2514.50,0.0370
2514.00,0.0370
2513.50,0.0370
2513.00,0.0371
2512.50,0.0371
2512.00,0.0371
2511.50,0.0372
2511.00,0.0372
2510.50,0.0373
2510.00,0.0373
2509.50,0.0374
2509.00,0.0375
2508.50,0.0375
2508.00,0.0376
2507.50,0.0377
2507.00,0.0378
2506.50,0.0379
2506.00,0.0380
2505.50,0.0381
2505.00,0.0382
2504.50,0.0384
2504.00,0.0385
2503.50,0.0386
2503.00,0.0387
2502.50,0.0389
2502.00,0.0390
2501.50,0.0391
2501.00,0.0392
2500.50,0.0392
2500.00,0.0393
2499.50,0.0393
2499.00,0.0393
2498.50,0.0393
2498.00,0.0393
2497.50,0.0393
2497.00,0.0392
2496.50,0.0392
2496.00,0.0391
2495.50,0.0390
2495.00,0.0390
2494.50,0.0389
2494.00,0.0388
2493.50,0.0387
2493.00,0.0386
2492.50,0.0386
2492.00,0.0385
2491.50,0.0384
2491.00,0.0383
2490.50,0.0382
2490.00,0.0382
2489.50,0.0381
2489.00,0.0380
2488.50,0.0379
2488.00,0.0379
2487.50,0.0378
2487.00,0.0378
2486.50,0.0377
2486.00,0.0377
2485.50,0.0376
2485.00,0.0376
2484.50,0.0375
2484.00,0.0375
2483.50,0.0374
2483.00,0.0374
2482.50,0.0374
2482.00,0.0373
2481.50,0.0373
2481.00,0.0373
2480.50,0.0372
2480.00,0.0372
2479.50,0.0372
2479.00,0.0372
2478.50,0.0372
2478.00,0.0371
2477.50,0.0371
2477.00,0.0371
2476.50,0.0371
2476.00,0.0371
2475.50,0.0371
2475.00,0.0371
2474.50,0.0370
2474.00,0.0370
2473.50,0.0370
2473.00,0.0370
2472.50,0.0370
2472.00,0.0370
2471.50,0.0370
2471.00,0.0370
2470.50,0.0370
2470.00,0.0370
2469.50,0.0370
2469.00,0.0370
2468.50,0.0370
2468.00,0.0369
2467.50,0.0369
2467.00,0.0369
2466.50,0.0369
2466.00,0.0369
2465.50,0.0369
2465.00,0.0369
2464.50,0.0369
2464.00,0.0369
2463.50,0.0369
2463.00,0.0369
2462.50,0.0369
2462.00,0.0368
2461.50,0.0368
2461.00,0.0368
2460.50,0.0368
2460.00,0.0368
2459.50,0.0368
2459.00,0.0368
2458.50,0.0368
2458.00,0.0368
2457.50,0.0368
2457.00,0.0368
2456.50,0.0368
2456.00,0.0368
2455.50,0.0367
2455.00,0.0367
2454.50,0.0367
2454.00,0.0367
2453.50,0.0367
2453.00,0.0367
2452.50,0.0367
2452.00,0.0367
2451.50,0.0367
2451.00,0.0367
2450.50,0.0367
2450.00,0.0367
2449.50,0.0367
2449.00,0.0367
2448.50,0.0367
2448.00,0.0367
2447.50,0.0367
2447.00,0.0367
2446.50,0.0367
2446.00,0.0367
2445.50,0.0367
2445.00,0.0367
2444.50,0.0367
2444.00,0.0367
2443.50,0.0367
2443.00,0.0367
2442.50,0.0367
2442.00,0.0367
2441.50,0.0367
2441.00,0.0367
2440.50,0.0367
2440.00,0.0367
2439.50,0.0367
2439.00,0.0367
2438.50,0.0366
2438.00,0.0367
2437.50,0.0367
2437.00,0.0366
2436.50,0.0366
2436.00,0.0366
2435.50,0.0366
2435.00,0.0366
2434.50,0.0366
2434.00,0.0366
2433.50,0.0366
2433.00,0.0366
2432.50,0.0366
2432.00,0.0366
2431.50,0.0366
2431.00,0.0366
2430.50,0.0365
2430.00,0.0365
2429.50,0.0365
2429.00,0.0365
2428.50,0.0365
2428.00,0.0365
2427.50,0.0365
2427.00,0.0365
2426.50,0.0365
2426.00,0.0365
2425.50,0.0365
2425.00,0.0365
2424.50,0.0365
2424.00,0.0365
2423.50,0.0365
2423.00,0.0365
2422.50,0.0365
2422.00,0.0365
2421.50,0.0365
2421.00,0.0365
2420.50,0.0365
2420.00,0.0365
2419.50,0.0365
2419.00,0.0365
2418.50,0.0365
2418.00,0.0365
2417.50,0.0365
2417.00,0.0365
2416.50,0.0365
2416.00,0.0365
2415.50,0.0365
2415.00,0.0365
2414.50,0.0365
2414.00,0.0365
2413.50,0.0365
2413.00,0.0365
2412.50,0.0365
2412.00,0.0365
2411.50,0.0365
2411.00,0.0365
2410.50,0.0365
2410.00,0.0365
2409.50,0.0365
2409.00,0.0365
2408.50,0.0364
2408.00,0.0364
2407.50,0.0364
2407.00,0.0365
2406.50,0.0365
2406.00,0.0365
2405.50,0.0365
2405.00,0.0365
2404.50,0.0364
2404.00,0.0364
2403.50,0.0364
2403.00,0.0364
2402.50,0.0364
2402.00,0.0364
2401.50,0.0364
2401.00,0.0364
2400.50,0.0364
2400.00,0.0364
2399.50,0.0364
2399.00,0.0364
2398.50,0.0364
2398.00,0.0364
2397.50,0.0364
2397.00,0.0364
2396.50,0.0364
2396.00,0.0364
2395.50,0.0364
2395.00,0.0364
2394.50,0.0364
2394.00,0.0364
2393.50,0.0364
2393.00,0.0364
2392.50,0.0364
2392.00,0.0364
2391.50,0.0364
2391.00,0.0364
2390.50,0.0364
2390.00,0.0364
2389.50,0.0364
2389.00,0.0364
2388.50,0.0364
2388.00,0.0364
2387.50,0.0364
2387.00,0.0364
2386.50,0.0364
2386.00,0.0363
2385.50,0.0363
2385.00,0.0363
2384.50,0.0363
2384.00,0.0363
2383.50,0.0363
2383.00,0.0363
2382.50,0.0363
2382.00,0.0363
2381.50,0.0363
2381.00,0.0364
2380.50,0.0364
2380.00,0.0364
2379.50,0.0364
2379.00,0.0364
2378.50,0.0365
2378.00,0.0365
2377.50,0.0365
2377.00,0.0366
2376.50,0.0366
2376.00,0.0366
2375.50,0.0366
2375.00,0.0366
2374.50,0.0366
2374.00,0.0366
2373.50,0.0366
2373.00,0.0366
2372.50,0.0366
2372.00,0.0365
2371.50,0.0365
2371.00,0.0365
2370.50,0.0365
2370.00,0.0365
2369.50,0.0365
2369.00,0.0364
2368.50,0.0365
2368.00,0.0365
2367.50,0.0365
2367.00,0.0365
2366.50,0.0365
2366.00,0.0364
2365.50,0.0364
2365.00,0.0364
2364.50,0.0365
2364.00,0.0365
2363.50,0.0365
2363.00,0.0365
2362.50,0.0365
2362.00,0.0365
2361.50,0.0364
2361.00,0.0364
2360.50,0.0364
2360.00,0.0364
2359.50,0.0365
2359.00,0.0365
2358.50,0.0364
2358.00,0.0364
2357.50,0.0363
2357.00,0.0363
2356.50,0.0364
2356.00,0.0364
2355.50,0.0365
2355.00,0.0365
2354.50,0.0365
2354.00,0.0365
2353.50,0.0364
2353.00,0.0365
2352.50,0.0365
2352.00,0.0366
2351.50,0.0365
2351.00,0.0364
2350.50,0.0363
2350.00,0.0362
2349.50,0.0362
2349.00,0.0363
2348.50,0.0364
2348.00,0.0366
2347.50,0.0367
2347.00,0.0367
2346.50,0.0367
2346.00,0.0367
2345.50,0.0366
2345.00,0.0365
2344.50,0.0365
2344.00,0.0364
2343.50,0.0363
2343.00,0.0363
2342.50,0.0363
2342.00,0.0363
2341.50,0.0363
2341.00,0.0363
2340.50,0.0364
2340.00,0.0365
2339.50,0.0365
2339.00,0.0365
2338.50,0.0365
2338.00,0.0366
2337.50,0.0366
2337.00,0.0365
2336.50,0.0366
2336.00,0.0366
2335.50,0.0365
2335.00,0.0365
2334.50,0.0366
2334.00,0.0366
2333.50,0.0366
2333.00,0.0366
2332.50,0.0366
2332.00,0.0366
2331.50,0.0365
2331.00,0.0365
2330.50,0.0365
2330.00,0.0365
2329.50,0.0365
2329.00,0.0364
2328.50,0.0364
2328.00,0.0364
2327.50,0.0364
2327.00,0.0364
2326.50,0.0364
2326.00,0.0365
2325.50,0.0364
2325.00,0.0364
2324.50,0.0364
2324.00,0.0364
2323.50,0.0364
2323.00,0.0364
2322.50,0.0364
2322.00,0.0364
2321.50,0.0364
2321.00,0.0364
2320.50,0.0364
2320.00,0.0364
2319.50,0.0364
2319.00,0.0364
2318.50,0.0364
2318.00,0.0364
2317.50,0.0364
2317.00,0.0363
2316.50,0.0363
2316.00,0.0363
2315.50,0.0364
2315.00,0.0364
2314.50,0.0363
2314.00,0.0364
2313.50,0.0364
2313.00,0.0364
2312.50,0.0363
2312.00,0.0363
2311.50,0.0363
2311.00,0.0363
2310.50,0.0363
2310.00,0.0363
2309.50,0.0363
2309.00,0.0363
2308.50,0.0363
2308.00,0.0363
2307.50,0.0363
2307.00,0.0364
2306.50,0.0363
2306.00,0.0363
2305.50,0.0364
2305.00,0.0364
2304.50,0.0364
2304.00,0.0363
2303.50,0.0364
2303.00,0.0364
2302.50,0.0364
2302.00,0.0364
2301.50,0.0364
2301.00,0.0364
2300.50,0.0364
2300.00,0.0364
2299.50,0.0364
2299.00,0.0365
2298.50,0.0365
2298.00,0.0365
2297.50,0.0365
2297.00,0.0365
2296.50,0.0365
2296.00,0.0365
2295.50,0.0365
2295.00,0.0366
2294.50,0.0366
2294.00,0.0365
2293.50,0.0365
2293.00,0.0366
2292.50,0.0366
2292.00,0.0366
2291.50,0.0366
2291.00,0.0366
2290.50,0.0366
2290.00,0.0366
2289.50,0.0366
2289.00,0.0366
2288.50,0.0366
2288.00,0.0366
2287.50,0.0367
2287.00,0.0367
2286.50,0.0367
2286.00,0.0367
2285.50,0.0367
2285.00,0.0367
2284.50,0.0367
2284.00,0.0367
2283.50,0.0367
2283.00,0.0368
2282.50,0.0368
2282.00,0.0367
2281.50,0.0367
2281.00,0.0368
2280.50,0.0368
2280.00,0.0368
2279.50,0.0368
2279.00,0.0368
2278.50,0.0368
2278.00,0.0368
2277.50,0.0368
2277.00,0.0368
2276.50,0.0368
2276.00,0.0368
2275.50,0.0368
2275.00,0.0369
2274.50,0.0369
2274.00,0.0369
2273.50,0.0369
2273.00,0.0369
2272.50,0.0369
2272.00,0.0369
2271.50,0.0369
2271.00,0.0369
2270.50,0.0369
2270.00,0.0369
2269.50,0.0369
2269.00,0.0369
2268.50,0.0369
2268.00,0.0369
2267.50,0.0369
2267.00,0.0369
2266.50,0.0369
2266.00,0.0369
2265.50,0.0369
2265.00,0.0369
2264.50,0.0369
2264.00,0.0369
2263.50,0.0369
2263.00,0.0369
2262.50,0.0369
2262.00,0.0369
2261.50,0.0369
2261.00,0.0369
2260.50,0.0369
2260.00,0.0369
2259.50,0.0369
2259.00,0.0369
2258.50,0.0369
2258.00,0.0369
2257.50,0.0369
2257.00,0.0369
2256.50,0.0369
2256.00,0.0369
2255.50,0.0369
2255.00,0.0369
2254.50,0.0369
2254.00,0.0369
2253.50,0.0369
2253.00,0.0369
2252.50,0.0369
2252.00,0.0370
2251.50,0.0370
2251.00,0.0370
2250.50,0.0370
2250.00,0.0370
2249.50,0.0370
2249.00,0.0370
2248.50,0.0370
2248.00,0.0370
2247.50,0.0370
2247.00,0.0371
2246.50,0.0371
2246.00,0.0371
2245.50,0.0371
2245.00,0.0371
2244.50,0.0371
2244.00,0.0371
2243.50,0.0371
2243.00,0.0372
2242.50,0.0372
2242.00,0.0372
2241.50,0.0372
2241.00,0.0372
2240.50,0.0372
2240.00,0.0372
2239.50,0.0372
2239.00,0.0373
2238.50,0.0373
2238.00,0.0373
2237.50,0.0373
2237.00,0.0373
2236.50,0.0373
2236.00,0.0373
2235.50,0.0373
2235.00,0.0374
2234.50,0.0374
2234.00,0.0374
2233.50,0.0374
2233.00,0.0374
2232.50,0.0375
2232.00,0.0375
2231.50,0.0375
2231.00,0.0375
2230.50,0.0375
2230.00,0.0376
2229.50,0.0376
2229.00,0.0376
2228.50,0.0376
2228.00,0.0376
2227.50,0.0377
2227.00,0.0377
2226.50,0.0377
2226.00,0.0377
2225.50,0.0378
2225.00,0.0378
2224.50,0.0378
2224.00,0.0378
2223.50,0.0379
2223.00,0.0379
2222.50,0.0380
2222.00,0.0380
2221.50,0.0380
2221.00,0.0381
2220.50,0.0381
2220.00,0.0381
2219.50,0.0382
2219.00,0.0382
2218.50,0.0383
2218.00,0.0383
2217.50,0.0384
2217.00,0.0384
2216.50,0.0384
2216.00,0.0385
2215.50,0.0385
2215.00,0.0386
2214.50,0.0386
2214.00,0.0387
2213.50,0.0388
2213.00,0.0388
2212.50,0.0389
2212.00,0.0389
2211.50,0.0390
2211.00,0.0390
2210.50,0.0391
2210.00,0.0392
2209.50,0.0392
2209.00,0.0393
2208.50,0.0394
2208.00,0.0394
2207.50,0.0395
2207.00,0.0396
2206.50,0.0397
2206.00,0.0398
2205.50,0.0399
2205.00,0.0399
2204.50,0.0400
2204.00,0.0401
2203.50,0.0402
2203.00,0.0403
2202.50,0.0404
2202.00,0.0405
2201.50,0.0406
2201.00,0.0407
2200.50,0.0409
2200.00,0.0410
2199.50,0.0411
2199.00,0.0412
2198.50,0.0414
2198.00,0.0415
2197.50,0.0417
2197.00,0.0418
2196.50,0.0420
2196.00,0.0421
2195.50,0.0423
2195.00,0.0425
2194.50,0.0427
2194.00,0.0429
2193.50,0.0431
2193.00,0.0433
2192.50,0.0435
2192.00,0.0437
2191.50,0.0439
2191.00,0.0441
2190.50,0.0444
2190.00,0.0446
2189.50,0.0449
2189.00,0.0452
2188.50,0.0454
2188.00,0.0457
2187.50,0.0460
2187.00,0.0463
2186.50,0.0467
2186.00,0.0470
2185.50,0.0473
2185.00,0.0476
2184.50,0.0480
2184.00,0.0483
2183.50,0.0487
2183.00,0.0491
2182.50,0.0495
2182.00,0.0498
2181.50,0.0502
2181.00,0.0506
2180.50,0.0511
2180.00,0.0515
2179.50,0.0519
2179.00,0.0523
2178.50,0.0528
2178.00,0.0532
2177.50,0.0536
2177.00,0.0541
2176.50,0.0545
2176.00,0.0549
2175.50,0.0554
2175.00,0.0558
2174.50,0.0562
2174.00,0.0567
2173.50,0.0571
2173.00,0.0575
2172.50,0.0579
2172.00,0.0583
2171.50,0.0587
2171.00,0.0590
2170.50,0.0594
2170.00,0.0597
2169.50,0.0600
2169.00,0.0603
2168.50,0.0606
2168.00,0.0609
2167.50,0.0611
2167.00,0.0614
2166.50,0.0616
2166.00,0.0618
2165.50,0.0619
2165.00,0.0621
2164.50,0.0622
2164.00,0.0623
2163.50,0.0624
2163.00,0.0624
2162.50,0.0624
2162.00,0.0624
2161.50,0.0624
2161.00,0.0623
2160.50,0.0622
2160.00,0.0621
2159.50,0.0620
2159.00,0.0618
2158.50,0.0617
2158.00,0.0614
2157.50,0.0612
2157.00,0.0610
2156.50,0.0607
2156.00,0.0604
2155.50,0.0601
2155.00,0.0598
2154.50,0.0595
2154.00,0.0591
2153.50,0.0587
2153.00,0.0584
2152.50,0.0580
2152.00,0.0576
2151.50,0.0572
2151.00,0.0568
2150.50,0.0564
2150.00,0.0559
2149.50,0.0555
2149.00,0.0551
2148.50,0.0546
2148.00,0.0542
2147.50,0.0537
2147.00,0.0533
2146.50,0.0529
2146.00,0.0525
2145.50,0.0520
2145.00,0.0516
2144.50,0.0512
2144.00,0.0508
2143.50,0.0504
2143.00,0.0500
2142.50,0.0496
2142.00,0.0492
2141.50,0.0489
2141.00,0.0485
2140.50,0.0481
2140.00,0.0478
2139.50,0.0474
2139.00,0.0471
2138.50,0.0468
2138.00,0.0465
2137.50,0.0462
2137.00,0.0459
2136.50,0.0456
2136.00,0.0454
2135.50,0.0451
2135.00,0.0448
2134.50,0.0446
2134.00,0.0444
2133.50,0.0441
2133.00,0.0439
2132.50,0.0437
2132.00,0.0435
2131.50,0.0433
2131.00,0.0431
2130.50,0.0430
2130.00,0.0428
2129.50,0.0426
2129.00,0.0425
2128.50,0.0424
2128.00,0.0422
2127.50,0.0421
2127.00,0.0420
2126.50,0.0418
2126.00,0.0417
2125.50,0.0416
2125.00,0.0415
2124.50,0.0414
2124.00,0.0413
2123.50,0.0412
2123.00,0.0411
2122.50,0.0410
2122.00,0.0409
2121.50,0.0408
2121.00,0.0407
2120.50,0.0407
2120.00,0.0406
2119.50,0.0405
2119.00,0.0405
2118.50,0.0404
2118.00,0.0403
2117.50,0.0402
2117.00,0.0402
2116.50,0.0401
2116.00,0.0401
2115.50,0.0400
2115.00,0.0400
2114.50,0.0399
2114.00,0.0399
2113.50,0.0398
2113.00,0.0398
2112.50,0.0398
2112.00,0.0397
2111.50,0.0397
2111.00,0.0396
2110.50,0.0396
2110.00,0.0396
2109.50,0.0395
2109.00,0.0395
2108.50,0.0395
2108.00,0.0395
2107.50,0.0394
2107.00,0.0394
2106.50,0.0394
2106.00,0.0394
2105.50,0.0394
2105.00,0.0393
2104.50,0.0393
2104.00,0.0393
2103.50,0.0393
2103.00,0.0393
2102.50,0.0393
2102.00,0.0392
2101.50,0.0392
2101.00,0.0392
2100.50,0.0392
2100.00,0.0392
2099.50,0.0392
2099.00,0.0391
2098.50,0.0391
2098.00,0.0391
2097.50,0.0391
2097.00,0.0390
2096.50,0.0390
2096.00,0.0390
2095.50,0.0390
2095.00,0.0390
2094.50,0.0390
2094.00,0.0390
2093.50,0.0390
2093.00,0.0389
2092.50,0.0389
2092.00,0.0389
2091.50,0.0389
2091.00,0.0389
2090.50,0.0389
2090.00,0.0389
2089.50,0.0389
2089.00,0.0389
2088.50,0.0389
2088.00,0.0389
2087.50,0.0389
2087.00,0.0389
2086.50,0.0389
2086.00,0.0389
2085.50,0.0389
2085.00,0.0389
2084.50,0.0389
2084.00,0.0389
2083.50,0.0389
2083.00,0.0389
2082.50,0.0389
2082.00,0.0389
2081.50,0.0389
2081.00,0.0389
2080.50,0.0389
2080.00,0.0389
2079.50,0.0389
2079.00,0.0389
2078.50,0.0389
2078.00,0.0389
2077.50,0.0389
2077.00,0.0389
2076.50,0.0389
2076.00,0.0390
2075.50,0.0390
2075.00,0.0390
2074.50,0.0390
2074.00,0.0390
2073.50,0.0390
2073.00,0.0390
2072.50,0.0391
2072.00,0.0391
2071.50,0.0391
2071.00,0.0391
2070.50,0.0391
2070.00,0.0391
2069.50,0.0392
2069.00,0.0392
2068.50,0.0392
2068.00,0.0392
2067.50,0.0393
2067.00,0.0393
2066.50,0.0393
2066.00,0.0393
2065.50,0.0393
2065.00,0.0394
2064.50,0.0394
2064.00,0.0394
2063.50,0.0395
2063.00,0.0395
2062.50,0.0395
2062.00,0.0395
2061.50,0.0396
2061.00,0.0396
2060.50,0.0396
2060.00,0.0396
2059.50,0.0397
2059.00,0.0397
2058.50,0.0397
2058.00,0.0397
2057.50,0.0398
2057.00,0.0398
2056.50,0.0398
2056.00,0.0398
2055.50,0.0399
2055.00,0.0399
2054.50,0.0399
2054.00,0.0399
2053.50,0.0399
2053.00,0.0399
2052.50,0.0399
2052.00,0.0400
2051.50,0.0400
2051.00,0.0399
2050.50,0.0399
2050.00,0.0399
2049.50,0.0399
2049.00,0.0398
2048.50,0.0398
2048.00,0.0398
2047.50,0.0397
2047.00,0.0397
2046.50,0.0396
2046.00,0.0395
2045.50,0.0395
2045.00,0.0394
2044.50,0.0393
2044.00,0.0392
2043.50,0.0392
2043.00,0.0391
2042.50,0.0390
2042.00,0.0389
2041.50,0.0388
2041.00,0.0387
2040.50,0.0386
2040.00,0.0386
2039.50,0.0385
2039.00,0.0384
2038.50,0.0384
2038.00,0.0383
2037.50,0.0382
2037.00,0.0382
2036.50,0.0381
2036.00,0.0381
2035.50,0.0380
2035.00,0.0380
2034.50,0.0380
2034.00,0.0379
2033.50,0.0379
2033.00,0.0379
2032.50,0.0379
2032.00,0.0378
2031.50,0.0378
2031.00,0.0378
2030.50,0.0378
2030.00,0.0378
2029.50,0.0378
2029.00,0.0378
2028.50,0.0378
2028.00,0.0378
2027.50,0.0378
2027.00,0.0378
2026.50,0.0378
2026.00,0.0378
2025.50,0.0378
2025.00,0.0378
2024.50,0.0378
2024.00,0.0379
2023.50,0.0379
2023.00,0.0379
2022.50,0.0380
2022.00,0.0380
2021.50,0.0380
2021.00,0.0381
2020.50,0.0381
2020.00,0.0381
2019.50,0.0382
2019.00,0.0382
2018.50,0.0382
2018.00,0.0382
2017.50,0.0383
2017.00,0.0383
2016.50,0.0384
2016.00,0.0384
2015.50,0.0385
2015.00,0.0385
2014.50,0.0386
2014.00,0.0386
2013.50,0.0386
2013.00,0.0387
2012.50,0.0387
2012.00,0.0388
2011.50,0.0389
2011.00,0.0389
2010.50,0.0389
2010.00,0.0390
2009.50,0.0390
2009.00,0.0391
2008.50,0.0391
2008.00,0.0391
2007.50,0.0392
2007.00,0.0392
2006.50,0.0392
2006.00,0.0392
2005.50,0.0393
2005.00,0.0393
2004.50,0.0393
2004.00,0.0393
2003.50,0.0394
2003.00,0.0394
2002.50,0.0394
2002.00,0.0394
2001.50,0.0395
2001.00,0.0395
2000.50,0.0395
2000.00,0.0395
1999.50,0.0395
1999.00,0.0396
1998.50,0.0396
1998.00,0.0396
1997.50,0.0396
1997.00,0.0396
1996.50,0.0396
1996.00,0.0396
1995.50,0.0396
1995.00,0.0396
1994.50,0.0396
1994.00,0.0395
1993.50,0.0395
1993.00,0.0395
1992.50,0.0395
1992.00,0.0395
1991.50,0.0395
1991.00,0.0396
1990.50,0.0396
1990.00,0.0396
1989.50,0.0396
1989.00,0.0396
1988.50,0.0396
1988.00,0.0397
1987.50,0.0397
1987.00,0.0397
1986.50,0.0398
1986.00,0.0398
1985.50,0.0398
1985.00,0.0399
1984.50,0.0399
1984.00,0.0400
1983.50,0.0400
1983.00,0.0401
1982.50,0.0401
1982.00,0.0402
1981.50,0.0402
1981.00,0.0403
1980.50,0.0404
1980.00,0.0405
1979.50,0.0405
1979.00,0.0406
1978.50,0.0407
1978.00,0.0408
1977.50,0.0408
1977.00,0.0409
1976.50,0.0410
1976.00,0.0411
1975.50,0.0412
1975.00,0.0413
1974.50,0.0414
1974.00,0.0415
1973.50,0.0416
1973.00,0.0417
1972.50,0.0418
1972.00,0.0419
1971.50,0.0420
1971.00,0.0421
1970.50,0.0423
1970.00,0.0424
1969.50,0.0425
1969.00,0.0426
1968.50,0.0427
1968.00,0.0428
1967.50,0.0429
1967.00,0.0430
1966.50,0.0432
1966.00,0.0433
1965.50,0.0434
1965.00,0.0435
1964.50,0.0436
1964.00,0.0437
1963.50,0.0438
1963.00,0.0439
1962.50,0.0439
1962.00,0.0440
1961.50,0.0441
1961.00,0.0442
1960.50,0.0443
1960.00,0.0444
1959.50,0.0445
1959.00,0.0446
1958.50,0.0447
1958.00,0.0447
1957.50,0.0448
1957.00,0.0449
1956.50,0.0450
1956.00,0.0451
1955.50,0.0452
1955.00,0.0453
1954.50,0.0454
1954.00,0.0456
1953.50,0.0457
1953.00,0.0458
1952.50,0.0459
1952.00,0.0460
1951.50,0.0461
1951.00,0.0463
1950.50,0.0464
1950.00,0.0465
1949.50,0.0466
1949.00,0.0467
1948.50,0.0468
1948.00,0.0469
1947.50,0.0470
1947.00,0.0471
1946.50,0.0472
1946.00,0.0472
1945.50,0.0473
1945.00,0.0473
1944.50,0.0474
1944.00,0.0474
1943.50,0.0474
1943.00,0.0473
1942.50,0.0473
1942.00,0.0472
1941.50,0.0471
1941.00,0.0470
1940.50,0.0469
1940.00,0.0467
1939.50,0.0466
1939.00,0.0464
1938.50,0.0463
1938.00,0.0461
1937.50,0.0459
1937.00,0.0457
1936.50,0.0455
1936.00,0.0453
1935.50,0.0451
1935.00,0.0450
1934.50,0.0448
1934.00,0.0446
1933.50,0.0445
1933.00,0.0443
1932.50,0.0442
1932.00,0.0441
1931.50,0.0439
1931.00,0.0438
1930.50,0.0437
1930.00,0.0436
1929.50,0.0435
1929.00,0.0434
1928.50,0.0434
1928.00,0.0433
1927.50,0.0432
1927.00,0.0432
1926.50,0.0431
1926.00,0.0431
1925.50,0.0430
1925.00,0.0430
1924.50,0.0429
1924.00,0.0428
1923.50,0.0428
1923.00,0.0428
1922.50,0.0427
1922.00,0.0427
1921.50,0.0427
1921.00,0.0426
1920.50,0.0426
1920.00,0.0426
1919.50,0.0425
1919.00,0.0425
1918.50,0.0424
1918.00,0.0424
1917.50,0.0423
1917.00,0.0422
1916.50,0.0422
1916.00,0.0421
1915.50,0.0420
1915.00,0.0420
1914.50,0.0419
1914.00,0.0418
1913.50,0.0418
1913.00,0.0417
1912.50,0.0416
1912.00,0.0416
1911.50,0.0414
1911.00,0.0413
1910.50,0.0413
1910.00,0.0412
1909.50,0.0412
1909.00,0.0411
1908.50,0.0410
1908.00,0.0409
1907.50,0.0408
1907.00,0.0408
1906.50,0.0408
1906.00,0.0407
1905.50,0.0407
1905.00,0.0407
1904.50,0.0406
1904.00,0.0406
1903.50,0.0405
1903.00,0.0405
1902.50,0.0405
1902.00,0.0405
1901.50,0.0404
1901.00,0.0404
1900.50,0.0404
1900.00,0.0404
1899.50,0.0404
1899.00,0.0403
1898.50,0.0403
1898.00,0.0403
1897.50,0.0403
1897.00,0.0403
1896.50,0.0403
1896.00,0.0403
1895.50,0.0403
1895.00,0.0403
1894.50,0.0403
1894.00,0.0403
1893.50,0.0403
1893.00,0.0403
1892.50,0.0403
1892.00,0.0403
1891.50,0.0403
1891.00,0.0403
1890.50,0.0403
1890.00,0.0403
1889.50,0.0403
1889.00,0.0402
1888.50,0.0402
1888.00,0.0403
1887.50,0.0403
1887.00,0.0403
1886.50,0.0403
1886.00,0.0403
1885.50,0.0403
1885.00,0.0403
1884.50,0.0403
1884.00,0.0403
1883.50,0.0403
1883.00,0.0403
1882.50,0.0403
1882.00,0.0403
1881.50,0.0403
1881.00,0.0403
1880.50,0.0403
1880.00,0.0403
1879.50,0.0403
1879.00,0.0403
1878.50,0.0404
1878.00,0.0404
1877.50,0.0404
1877.00,0.0404
1876.50,0.0404
1876.00,0.0404
1875.50,0.0404
1875.00,0.0404
1874.50,0.0404
1874.00,0.0404
1873.50,0.0404
1873.00,0.0404
1872.50,0.0404
1872.00,0.0404
1871.50,0.0404
1871.00,0.0404
1870.50,0.0404
1870.00,0.0404
1869.50,0.0404
1869.00,0.0404
1868.50,0.0404
1868.00,0.0403
1867.50,0.0404
1867.00,0.0404
1866.50,0.0404
1866.00,0.0404
1865.50,0.0404
1865.00,0.0404
1864.50,0.0404
1864.00,0.0404
1863.50,0.0404
1863.00,0.0404
1862.50,0.0404
1862.00,0.0404
1861.50,0.0404
1861.00,0.0404
1860.50,0.0404
1860.00,0.0404
1859.50,0.0404
1859.00,0.0404
1858.50,0.0404
1858.00,0.0404
1857.50,0.0404
1857.00,0.0404
1856.50,0.0404
1856.00,0.0404
1855.50,0.0404
1855.00,0.0404
1854.50,0.0404
1854.00,0.0404
1853.50,0.0404
1853.00,0.0404
1852.50,0.0404
1852.00,0.0404
1851.50,0.0404
1851.00,0.0404
1850.50,0.0404
1850.00,0.0404
1849.50,0.0404
1849.00,0.0404
1848.50,0.0404
1848.00,0.0404
1847.50,0.0403
1847.00,0.0403
1846.50,0.0403
1846.00,0.0403
1845.50,0.0403
1845.00,0.0403
1844.50,0.0403
1844.00,0.0403
1843.50,0.0403
1843.00,0.0403
1842.50,0.0403
1842.00,0.0403
1841.50,0.0403
1841.00,0.0402
1840.50,0.0402
1840.00,0.0403
1839.50,0.0403
1839.00,0.0403
1838.50,0.0403
1838.00,0.0403
1837.50,0.0403
1837.00,0.0403
1836.50,0.0403
1836.00,0.0403
1835.50,0.0403
1835.00,0.0403
1834.50,0.0403
1834.00,0.0403
1833.50,0.0403
1833.00,0.0403
1832.50,0.0403
1832.00,0.0403
1831.50,0.0403
1831.00,0.0402
1830.50,0.0402
1830.00,0.0402
1829.50,0.0403
1829.00,0.0403
1828.50,0.0403
1828.00,0.0403
1827.50,0.0404
1827.00,0.0404
1826.50,0.0404
1826.00,0.0404
1825.50,0.0404
1825.00,0.0405
1824.50,0.0405
1824.00,0.0405
1823.50,0.0405
1823.00,0.0406
1822.50,0.0406
1822.00,0.0406
1821.50,0.0406
1821.00,0.0407
1820.50,0.0407
1820.00,0.0407
1819.50,0.0408
1819.00,0.0408
1818.50,0.0408
1818.00,0.0409
1817.50,0.0409
1817.00,0.0410
1816.50,0.0410
1816.00,0.0410
1815.50,0.0411
1815.00,0.0411
1814.50,0.0411
1814.00,0.0412
1813.50,0.0412
1813.00,0.0412
1812.50,0.0413
1812.00,0.0413
1811.50,0.0413
1811.00,0.0414
1810.50,0.0414
1810.00,0.0415
1809.50,0.0415
1809.00,0.0415
1808.50,0.0416
1808.00,0.0417
1807.50,0.0417
1807.00,0.0418
1806.50,0.0418
1806.00,0.0419
1805.50,0.0419
1805.00,0.0419
1804.50,0.0420
1804.00,0.0420
1803.50,0.0420
1803.00,0.0421
1802.50,0.0421
1802.00,0.0422
1801.50,0.0422
1801.00,0.0422
1800.50,0.0423
1800.00,0.0423
1799.50,0.0424
1799.00,0.0424
1798.50,0.0425
1798.00,0.0425
1797.50,0.0426
1797.00,0.0426
1796.50,0.0427
1796.00,0.0427
1795.50,0.0428
1795.00,0.0428
1794.50,0.0429
1794.00,0.0429
1793.50,0.0429
1793.00,0.0430
1792.50,0.0431
1792.00,0.0431
1791.50,0.0431
1791.00,0.0431
1790.50,0.0431
1790.00,0.0432
1789.50,0.0433
1789.00,0.0433
1788.50,0.0433
1788.00,0.0434
1787.50,0.0434
1787.00,0.0434
1786.50,0.0435
1786.00,0.0435
1785.50,0.0435
1785.00,0.0436
1784.50,0.0436
1784.00,0.0436
1783.50,0.0436
1783.00,0.0437
1782.50,0.0437
1782.00,0.0437
1781.50,0.0437
1781.00,0.0437
1780.50,0.0437
1780.00,0.0437
1779.50,0.0438
1779.00,0.0438
1778.50,0.0438
1778.00,0.0438
1777.50,0.0438
1777.00,0.0438
1776.50,0.0438
1776.00,0.0438
1775.50,0.0438
1775.00,0.0438
1774.50,0.0438
1774.00,0.0438
1773.50,0.0437
1773.00,0.0438
1772.50,0.0438
1772.00,0.0437
1771.50,0.0437
1771.00,0.0437
1770.50,0.0437
1770.00,0.0437
1769.50,0.0437
1769.00,0.0437
1768.50,0.0437
1768.00,0.0438
1767.50,0.0437
1767.00,0.0437
1766.50,0.0437
1766.00,0.0437
1765.50,0.0437
1765.00,0.0437
1764.50,0.0437
1764.00,0.0437
1763.50,0.0436
1763.00,0.0436
1762.50,0.0436
1762.00,0.0436
1761.50,0.0436
1761.00,0.0436
1760.50,0.0436
1760.00,0.0436
1759.50,0.0436
1759.00,0.0436
1758.50,0.0436
1758.00,0.0436
1757.50,0.0436
1757.00,0.0436
1756.50,0.0436
1756.00,0.0436
1755.50,0.0436
1755.00,0.0436
1754.50,0.0436
1754.00,0.0436
1753.50,0.0436
1753.00,0.0436
1752.50,0.0437
1752.00,0.0437
1751.50,0.0438
1751.00,0.0437
1750.50,0.0437
1750.00,0.0436
1749.50,0.0436
1749.00,0.0436
1748.50,0.0436
1748.00,0.0436
1747.50,0.0437
1747.00,0.0437
1746.50,0.0438
1746.00,0.0438
1745.50,0.0439
1745.00,0.0440
1744.50,0.0440
1744.00,0.0440
1743.50,0.0441
1743.00,0.0441
1742.50,0.0441
1742.00,0.0441
1741.50,0.0442
1741.00,0.0442
1740.50,0.0442
1740.00,0.0442
1739.50,0.0442
1739.00,0.0442
1738.50,0.0442
1738.00,0.0442
1737.50,0.0443
1737.00,0.0443
1736.50,0.0444
1736.00,0.0444
1735.50,0.0444
1735.00,0.0445
1734.50,0.0446
1734.00,0.0446
1733.50,0.0446
1733.00,0.0445
1732.50,0.0446
1732.00,0.0446
1731.50,0.0446
1731.00,0.0446
1730.50,0.0446
1730.00,0.0446
1729.50,0.0446
1729.00,0.0447
1728.50,0.0447
1728.00,0.0447
1727.50,0.0447
1727.00,0.0447
1726.50,0.0447
1726.00,0.0447
1725.50,0.0447
1725.00,0.0447
1724.50,0.0447
1724.00,0.0447
1723.50,0.0447
1723.00,0.0447
1722.50,0.0447
1722.00,0.0447
1721.50,0.0447
1721.00,0.0447
1720.50,0.0447
1720.00,0.0447
1719.50,0.0447
1719.00,0.0447
1718.50,0.0446
1718.00,0.0446
1717.50,0.0446
1717.00,0.0447
1716.50,0.0447
1716.00,0.0446
1715.50,0.0446
1715.00,0.0446
1714.50,0.0445
1714.00,0.0445
1713.50,0.0445
1713.00,0.0445
1712.50,0.0445
1712.00,0.0445
1711.50,0.0445
1711.00,0.0445
1710.50,0.0445
1710.00,0.0445
1709.50,0.0445
1709.00,0.0445
1708.50,0.0445
1708.00,0.0444
1707.50,0.0444
1707.00,0.0444
1706.50,0.0444
1706.00,0.0443
1705.50,0.0443
1705.00,0.0443
1704.50,0.0443
1704.00,0.0444
1703.50,0.0444
1703.00,0.0445
1702.50,0.0445
1702.00,0.0445
1701.50,0.0445
1701.00,0.0446
1700.50,0.0447
1700.00,0.0445
1699.50,0.0445
1699.00,0.0445
1698.50,0.0445
1698.00,0.0445
1697.50,0.0445
1697.00,0.0445
1696.50,0.0445
1696.00,0.0446
1695.50,0.0447
1695.00,0.0447
1694.50,0.0447
1694.00,0.0446
1693.50,0.0446
1693.00,0.0446
1692.50,0.0447
1692.00,0.0447
1691.50,0.0447
1691.00,0.0447
1690.50,0.0447
1690.00,0.0447
1689.50,0.0447
1689.00,0.0448
1688.50,0.0448
1688.00,0.0448
1687.50,0.0448
1687.00,0.0448
1686.50,0.0449
1686.00,0.0449
1685.50,0.0448
1685.00,0.0449
1684.50,0.0449
1684.00,0.0448
1683.50,0.0447
1683.00,0.0448
1682.50,0.0449
1682.00,0.0450
1681.50,0.0450
1681.00,0.0451
1680.50,0.0451
1680.00,0.0452
1679.50,0.0452
1679.00,0.0452
1678.50,0.0453
1678.00,0.0453
1677.50,0.0453
1677.00,0.0454
1676.50,0.0454
1676.00,0.0455
1675.50,0.0456
1675.00,0.0456
1674.50,0.0456
1674.00,0.0456
1673.50,0.0456
1673.00,0.0457
1672.50,0.0457
1672.00,0.0457
1671.50,0.0458
1671.00,0.0458
1670.50,0.0459
1670.00,0.0459
1669.50,0.0459
1669.00,0.0460
1668.50,0.0460
1668.00,0.0461
1667.50,0.0461
1667.00,0.0462
1666.50,0.0462
1666.00,0.0463
1665.50,0.0463
1665.00,0.0464
1664.50,0.0464
1664.00,0.0464
1663.50,0.0465
1663.00,0.0465
1662.50,0.0465
1662.00,0.0466
1661.50,0.0467
1661.00,0.0468
1660.50,0.0468
1660.00,0.0469
1659.50,0.0469
1659.00,0.0470
1658.50,0.0470
1658.00,0.0470
1657.50,0.0471
1657.00,0.0471
1656.50,0.0472
1656.00,0.0472
1655.50,0.0472
1655.00,0.0473
1654.50,0.0473
1654.00,0.0473
1653.50,0.0474
1653.00,0.0475
1652.50,0.0474
1652.00,0.0475
1651.50,0.0476
1651.00,0.0476
1650.50,0.0476
1650.00,0.0476
1649.50,0.0477
1649.00,0.0477
1648.50,0.0477
1648.00,0.0478
1647.50,0.0478
1647.00,0.0478
1646.50,0.0479
1646.00,0.0480
1645.50,0.0481
1645.00,0.0482
1644.50,0.0482
1644.00,0.0482
1643.50,0.0482
1643.00,0.0483
1642.50,0.0483
1642.00,0.0483
1641.50,0.0484
1641.00,0.0484
1640.50,0.0484
1640.00,0.0485
1639.50,0.0485
1639.00,0.0485
1638.50,0.0486
1638.00,0.0486
1637.50,0.0486
1637.00,0.0487
1636.50,0.0487
1636.00,0.0487
1635.50,0.0488
1635.00,0.0488
1634.50,0.0488
1634.00,0.0489
1633.50,0.0489
1633.00,0.0490
1632.50,0.0490
1632.00,0.0491
1631.50,0.0491
1631.00,0.0492
1630.50,0.0492
1630.00,0.0493
1629.50,0.0493
1629.00,0.0493
1628.50,0.0493
1628.00,0.0494
1627.50,0.0494
1627.00,0.0495
1626.50,0.0495
1626.00,0.0496
1625.50,0.0497
1625.00,0.0497
1624.50,0.0498
1624.00,0.0498
1623.50,0.0499
1623.00,0.0499
1622.50,0.0499
1622.00,0.0500
1621.50,0.0501
1621.00,0.0501
1620.50,0.0502
1620.00,0.0503
1619.50,0.0503
1619.00,0.0504
1618.50,0.0504
1618.00,0.0505
1617.50,0.0505
1617.00,0.0506
1616.50,0.0507
1616.00,0.0507
1615.50,0.0508
1615.00,0.0508
1614.50,0.0508
1614.00,0.0509
1613.50,0.0510
1613.00,0.0510
1612.50,0.0511
1612.00,0.0512
1611.50,0.0512
1611.00,0.0512
1610.50,0.0513
1610.00,0.0513
1609.50,0.0514
1609.00,0.0514
1608.50,0.0515
1608.00,0.0515
1607.50,0.0516
1607.00,0.0516
1606.50,0.0517
1606.00,0.0518
1605.50,0.0518
1605.00,0.0519
1604.50,0.0520
1604.00,0.0520
1603.50,0.0521
1603.00,0.0522
1602.50,0.0523
1602.00,0.0525
1601.50,0.0526
1601.00,0.0529
1600.50,0.0531
1600.00,0.0534
1599.50,0.0538
1599.00,0.0542
1598.50,0.0546
1598.00,0.0550
1597.50,0.0553
1597.00,0.0555
1596.50,0.0555
1596.00,0.0552
1595.50,0.0549
1595.00,0.0544
1594.50,0.0539
1594.00,0.0535
1593.50,0.0531
1593.00,0.0528
1592.50,0.0525
1592.00,0.0523
1591.50,0.0521
1591.00,0.0520
1590.50,0.0518
1590.00,0.0517
1589.50,0.0516
1589.00,0.0515
1588.50,0.0514
1588.00,0.0513
1587.50,0.0512
1587.00,0.0512
1586.50,0.0511
1586.00,0.0510
1585.50,0.0509
1585.00,0.0509
1584.50,0.0508
1584.00,0.0507
1583.50,0.0507
1583.00,0.0506
1582.50,0.0505
1582.00,0.0505
1581.50,0.0504
1581.00,0.0504
1580.50,0.0503
1580.00,0.0502
1579.50,0.0502
1579.00,0.0501
1578.50,0.0501
1578.00,0.0500
1577.50,0.0500
1577.00,0.0499
1576.50,0.0499
1576.00,0.0498
1575.50,0.0497
1575.00,0.0496
1574.50,0.0495
1574.00,0.0495
1573.50,0.0494
1573.00,0.0494
1572.50,0.0494
1572.00,0.0493
1571.50,0.0493
1571.00,0.0492
1570.50,0.0492
1570.00,0.0491
1569.50,0.0490
1569.00,0.0489
1568.50,0.0488
1568.00,0.0488
1567.50,0.0488
1567.00,0.0488
1566.50,0.0488
1566.00,0.0487
1565.50,0.0487
1565.00,0.0487
1564.50,0.0486
1564.00,0.0486
1563.50,0.0486
1563.00,0.0486
1562.50,0.0486
1562.00,0.0486
1561.50,0.0486
1561.00,0.0486
1560.50,0.0487
1560.00,0.0488
1559.50,0.0487
1559.00,0.0485
1558.50,0.0484
1558.00,0.0483
1557.50,0.0484
1557.00,0.0484
1556.50,0.0485
1556.00,0.0484
1555.50,0.0484
1555.00,0.0485
1554.50,0.0486
1554.00,0.0486
1553.50,0.0485
1553.00,0.0485
1552.50,0.0484
1552.00,0.0484
1551.50,0.0484
1551.00,0.0484
1550.50,0.0485
1550.00,0.0485
1549.50,0.0484
1549.00,0.0484
1548.50,0.0485
1548.00,0.0485
1547.50,0.0485
1547.00,0.0485
1546.50,0.0485
1546.00,0.0486
1545.50,0.0486
1545.00,0.0485
1544.50,0.0485
1544.00,0.0485
1543.50,0.0485
1543.00,0.0485
1542.50,0.0485
1542.00,0.0486
1541.50,0.0486
1541.00,0.0486
1540.50,0.0486
1540.00,0.0486
1539.50,0.0485
1539.00,0.0485
1538.50,0.0485
1538.00,0.0486
1537.50,0.0486
1537.00,0.0486
1536.50,0.0486
1536.00,0.0487
1535.50,0.0487
1535.00,0.0487
1534.50,0.0487
1534.00,0.0487
1533.50,0.0486
1533.00,0.0486
1532.50,0.0486
1532.00,0.0487
1531.50,0.0487
1531.00,0.0487
1530.50,0.0488
1530.00,0.0488
1529.50,0.0488
1529.00,0.0488
1528.50,0.0488
1528.00,0.0488
1527.50,0.0488
1527.00,0.0488
1526.50,0.0488
1526.00,0.0488
1525.50,0.0489
1525.00,0.0489
1524.50,0.0489
1524.00,0.0488
1523.50,0.0488
1523.00,0.0488
1522.50,0.0488
1522.00,0.0488
1521.50,0.0488
1521.00,0.0489
1520.50,0.0488
1520.00,0.0488
1519.50,0.0488
1519.00,0.0488
1518.50,0.0488
1518.00,0.0488
1517.50,0.0488
1517.00,0.0487
1516.50,0.0487
1516.00,0.0487
1515.50,0.0487
1515.00,0.0488
1514.50,0.0488
1514.00,0.0488
1513.50,0.0488
1513.00,0.0488
1512.50,0.0488
1512.00,0.0488
1511.50,0.0488
1511.00,0.0488
1510.50,0.0488
1510.00,0.0488
1509.50,0.0488
1509.00,0.0488
1508.50,0.0489
1508.00,0.0489
1507.50,0.0490
1507.00,0.0490
1506.50,0.0488
1506.00,0.0487
1505.50,0.0487
1505.00,0.0488
1504.50,0.0489
1504.00,0.0489
1503.50,0.0488
1503.00,0.0489
1502.50,0.0489
1502.00,0.0489
1501.50,0.0490
1501.00,0.0490
1500.50,0.0490
1500.00,0.0490
1499.50,0.0490
1499.00,0.0491
1498.50,0.0491
1498.00,0.0491
1497.50,0.0491
1497.00,0.0492
1496.50,0.0493
1496.00,0.0494
1495.50,0.0494
1495.00,0.0494
1494.50,0.0494
1494.00,0.0495
1493.50,0.0496
1493.00,0.0498
1492.50,0.0499
1492.00,0.0500
1491.50,0.0501
1491.00,0.0502
1490.50,0.0503
1490.00,0.0504
1489.50,0.0506
1489.00,0.0508
1488.50,0.0510
1488.00,0.0511
1487.50,0.0512
1487.00,0.0513
1486.50,0.0514
1486.00,0.0515
1485.50,0.0515
1485.00,0.0516
1484.50,0.0516
1484.00,0.0517
1483.50,0.0518
1483.00,0.0519
1482.50,0.0520
1482.00,0.0521
1481.50,0.0521
1481.00,0.0522
1480.50,0.0523
1480.00,0.0523
1479.50,0.0524
1479.00,0.0524
1478.50,0.0525
1478.00,0.0525
1477.50,0.0525
1477.00,0.0526
1476.50,0.0526
1476.00,0.0526
1475.50,0.0527
1475.00,0.0528
1474.50,0.0529
1474.00,0.0530
1473.50,0.0531
1473.00,0.0533
1472.50,0.0534
1472.00,0.0535
1471.50,0.0537
1471.00,0.0538
1470.50,0.0540
1470.00,0.0542
1469.50,0.0544
1469.00,0.0547
1468.50,0.0550
1468.00,0.0553
1467.50,0.0555
1467.00,0.0558
1466.50,0.0561
1466.00,0.0564
1465.50,0.0567
1465.00,0.0572
1464.50,0.0577
1464.00,0.0581
1463.50,0.0584
1463.00,0.0588
1462.50,0.0592
1462.00,0.0597
1461.50,0.0602
1461.00,0.0607
1460.50,0.0611
1460.00,0.0616
1459.50,0.0621
1459.00,0.0626
1458.50,0.0631
1458.00,0.0636
1457.50,0.0642
1457.00,0.0649
1456.50,0.0656
1456.00,0.0660
1455.50,0.0664
1455.00,0.0668
1454.50,0.0673
1454.00,0.0678
1453.50,0.0684
1453.00,0.0690
1452.50,0.0697
1452.00,0.0704
1451.50,0.0711
1451.00,0.0718
1450.50,0.0725
1450.00,0.0732
1449.50,0.0738
1449.00,0.0745
1448.50,0.0751
1448.00,0.0757
1447.50,0.0763
1447.00,0.0767
1446.50,0.0770
1446.00,0.0772
1445.50,0.0773
1445.00,0.0773
1444.50,0.0772
1444.00,0.0770
1443.50,0.0767
1443.00,0.0764
1442.50,0.0760
1442.00,0.0755
1441.50,0.0749
1441.00,0.0744
1440.50,0.0738
1440.00,0.0732
1439.50,0.0727
1439.00,0.0722
1438.50,0.0718
1438.00,0.0714
1437.50,0.0710
1437.00,0.0706
1436.50,0.0701
1436.00,0.0696
1435.50,0.0694
1435.00,0.0692
1434.50,0.0691
1434.00,0.0691
1433.50,0.0691
1433.00,0.0692
1432.50,0.0692
1432.00,0.0694
1431.50,0.0696
1431.00,0.0698
1430.50,0.0702
1430.00,0.0706
1429.50,0.0711
1429.00,0.0717
1428.50,0.0723
1428.00,0.0730
1427.50,0.0737
1427.00,0.0746
1426.50,0.0756
1426.00,0.0766
1425.50,0.0778
1425.00,0.0790
1424.50,0.0805
1424.00,0.0822
1423.50,0.0841
1423.00,0.0859
1422.50,0.0877
1422.00,0.0897
1421.50,0.0917
1421.00,0.0936
1420.50,0.0955
1420.00,0.0979
1419.50,0.1011
1419.00,0.1044
1418.50,0.1069
1418.00,0.1088
1417.50,0.1107
1417.00,0.1128
1416.50,0.1148
1416.00,0.1166
1415.50,0.1182
1415.00,0.1196
1414.50,0.1208
1414.00,0.1218
1413.50,0.1227
1413.00,0.1233
1412.50,0.1236
1412.00,0.1239
1411.50,0.1239
1411.00,0.1238
1410.50,0.1235
1410.00,0.1232
1409.50,0.1227
1409.00,0.1220
1408.50,0.1213
1408.00,0.1204
1407.50,0.1195
1407.00,0.1186
1406.50,0.1176
1406.00,0.1167
1405.50,0.1156
1405.00,0.1145
1404.50,0.1134
1404.00,0.1125
1403.50,0.1118
1403.00,0.1111
1402.50,0.1105
1402.00,0.1098
1401.50,0.1091
1401.00,0.1083
1400.50,0.1076
1400.00,0.1067
1399.50,0.1054
1399.00,0.1039
1398.50,0.1023
1398.00,0.1008
1397.50,0.0992
1397.00,0.0976
1396.50,0.0959
1396.00,0.0941
1395.50,0.0922
1395.00,0.0901
1394.50,0.0880
1394.00,0.0860
1393.50,0.0844
1393.00,0.0830
1392.50,0.0817
1392.00,0.0804
1391.50,0.0792
1391.00,0.0780
1390.50,0.0769
1390.00,0.0759
1389.50,0.0750
1389.00,0.0742
1388.50,0.0735
1388.00,0.0728
1387.50,0.0721
1387.00,0.0714
1386.50,0.0708
1386.00,0.0704
1385.50,0.0700
1385.00,0.0696
1384.50,0.0692
1384.00,0.0689
1383.50,0.0685
1383.00,0.0681
1382.50,0.0678
1382.00,0.0675
1381.50,0.0671
1381.00,0.0668
1380.50,0.0665
1380.00,0.0663
1379.50,0.0660
1379.00,0.0658
1378.50,0.0656
1378.00,0.0654
1377.50,0.0653
1377.00,0.0651
1376.50,0.0650
1376.00,0.0650
1375.50,0.0649
1375.00,0.0648
1374.50,0.0647
1374.00,0.0647
1373.50,0.0646
1373.00,0.0646
1372.50,0.0646
1372.00,0.0646
1371.50,0.0645
1371.00,0.0643
1370.50,0.0642
1370.00,0.0640
1369.50,0.0639
1369.00,0.0637
1368.50,0.0635
1368.00,0.0633
1367.50,0.0632
1367.00,0.0631
1366.50,0.0630
1366.00,0.0629
1365.50,0.0629
1365.00,0.0628
1364.50,0.0627
1364.00,0.0627
1363.50,0.0627
1363.00,0.0626
1362.50,0.0625
1362.00,0.0625
1361.50,0.0624
1361.00,0.0624
1360.50,0.0624
1360.00,0.0624
1359.50,0.0624
1359.00,0.0624
1358.50,0.0624
1358.00,0.0624
1357.50,0.0624
1357.00,0.0623
1356.50,0.0623
1356.00,0.0623
1355.50,0.0623
1355.00,0.0623
1354.50,0.0624
1354.00,0.0624
1353.50,0.0624
1353.00,0.0624
1352.50,0.0625
1352.00,0.0625
1351.50,0.0625
1351.00,0.0626
1350.50,0.0626
1350.00,0.0627
1349.50,0.0627
1349.00,0.0628
1348.50,0.0628
1348.00,0.0629
1347.50,0.0630
1347.00,0.0630
1346.50,0.0631
1346.00,0.0632
1345.50,0.0632
1345.00,0.0633
1344.50,0.0633
1344.00,0.0633
1343.50,0.0634
1343.00,0.0634
1342.50,0.0634
1342.00,0.0635
1341.50,0.0635
1341.00,0.0635
1340.50,0.0636
1340.00,0.0636
1339.50,0.0636
1339.00,0.0636
1338.50,0.0636
1338.00,0.0637
1337.50,0.0637
1337.00,0.0638
1336.50,0.0639
1336.00,0.0640
1335.50,0.0641
1335.00,0.0642
1334.50,0.0644
1334.00,0.0645
1333.50,0.0647
1333.00,0.0648
1332.50,0.0649
1332.00,0.0651
1331.50,0.0652
1331.00,0.0654
1330.50,0.0656
1330.00,0.0658
1329.50,0.0660
1329.00,0.0662
1328.50,0.0664
1328.00,0.0666
1327.50,0.0668
1327.00,0.0670
1326.50,0.0672
1326.00,0.0675
1325.50,0.0677
1325.00,0.0679
1324.50,0.0682
1324.00,0.0685
1323.50,0.0687
1323.00,0.0690
1322.50,0.0693
1322.00,0.0696
1321.50,0.0699
1321.00,0.0702
1320.50,0.0705
1320.00,0.0708
1319.50,0.0711
1319.00,0.0714
1318.50,0.0717
1318.00,0.0721
1317.50,0.0724
1317.00,0.0727
1316.50,0.0731
1316.00,0.0734
1315.50,0.0738
1315.00,0.0742
1314.50,0.0746
1314.00,0.0750
1313.50,0.0753
1313.00,0.0757
1312.50,0.0761
1312.00,0.0766
1311.50,0.0770
1311.00,0.0774
1310.50,0.0778
1310.00,0.0782
1309.50,0.0787
1309.00,0.0791
1308.50,0.0796
1308.00,0.0800
1307.50,0.0805
1307.00,0.0810
1306.50,0.0814
1306.00,0.0819
1305.50,0.0824
1305.00,0.0829
1304.50,0.0834
1304.00,0.0839
1303.50,0.0845
1303.00,0.0851
1302.50,0.0857
1302.00,0.0863
1301.50,0.0869
1301.00,0.0875
1300.50,0.0881
1300.00,0.0888
1299.50,0.0894
1299.00,0.0901
1298.50,0.0908
1298.00,0.0916
1297.50,0.0924
1297.00,0.0932
1296.50,0.0940
1296.00,0.0949
1295.50,0.0957
1295.00,0.0966
1294.50,0.0976
1294.00,0.0986
1293.50,0.0996
1293.00,0.1006
1292.50,0.1016
1292.00,0.1027
1291.50,0.1038
1291.00,0.1050
1290.50,0.1062
1290.00,0.1075
1289.50,0.1088
1289.00,0.1101
1288.50,0.1115
1288.00,0.1130
1287.50,0.1145
1287.00,0.1161
1286.50,0.1177
1286.00,0.1194
1285.50,0.1213
1285.00,0.1232
1284.50,0.1252
1284.00,0.1274
1283.50,0.1297
1283.00,0.1322
1282.50,0.1348
1282.00,0.1376
1281.50,0.1407
1281.00,0.1439
1280.50,0.1475
1280.00,0.1513
1279.50,0.1554
1279.00,0.1599
1278.50,0.1648
1278.00,0.1702
1277.50,0.1760
1277.00,0.1825
1276.50,0.1896
1276.00,0.1974
1275.50,0.2060
1275.00,0.2156
1274.50,0.2263
1274.00,0.2382
1273.50,0.2515
1273.00,0.2665
1272.50,0.2836
1272.00,0.3031
1271.50,0.3255
1271.00,0.3510
1270.50,0.3802
1270.00,0.4136
1269.50,0.4519
1269.00,0.4955
1268.50,0.5446
1268.00,0.5991
1267.50,0.6588
1267.00,0.7230
1266.50,0.7902
1266.00,0.8586
1265.50,0.9264
1265.00,0.9919
1264.50,1.0521
1264.00,1.1052
1263.50,1.1503
1263.00,1.1869
1262.50,1.2129
1262.00,1.2278
1261.50,1.2335
1261.00,1.2310
1260.50,1.2194
1260.00,1.1996
1259.50,1.1740
1259.00,1.1440
1258.50,1.1091
1258.00,1.0700
1257.50,1.0290
1257.00,0.9875
1256.50,0.9455
1256.00,0.9038
1255.50,0.8637
1255.00,0.8255
1254.50,0.7881
1254.00,0.7512
1253.50,0.7147
1253.00,0.6781
1252.50,0.6406
1252.00,0.6022
1251.50,0.5636
1251.00,0.5256
1250.50,0.4886
1250.00,0.4534
1249.50,0.4207
1249.00,0.3909
1248.50,0.3638
1248.00,0.3395
1247.50,0.3179
1247.00,0.2989
1246.50,0.2822
1246.00,0.2675
1245.50,0.2546
1245.00,0.2433
1244.50,0.2333
1244.00,0.2244
1243.50,0.2166
1243.00,0.2096
1242.50,0.2034
1242.00,0.1979
1241.50,0.1930
1241.00,0.1886
1240.50,0.1847
1240.00,0.1811
1239.50,0.1780
1239.00,0.1752
1238.50,0.1727
1238.00,0.1705
1237.50,0.1685
1237.00,0.1667
1236.50,0.1651
1236.00,0.1637
1235.50,0.1626
1235.00,0.1616
1234.50,0.1607
1234.00,0.1600
1233.50,0.1594
1233.00,0.1590
1232.50,0.1587
1232.00,0.1584
1231.50,0.1583
1231.00,0.1584
1230.50,0.1585
1230.00,0.1587
1229.50,0.1590
1229.00,0.1595
1228.50,0.1600
1228.00,0.1606
1227.50,0.1613
1227.00,0.1621
1226.50,0.1630
1226.00,0.1639
1225.50,0.1649
1225.00,0.1660
1224.50,0.1672
1224.00,0.1685
1223.50,0.1698
1223.00,0.1712
1222.50,0.1727
1222.00,0.1742
1221.50,0.1759
1221.00,0.1776
1220.50,0.1793
1220.00,0.1811
1219.50,0.1830
1219.00,0.1849
1218.50,0.1869
1218.00,0.1890
1217.50,0.1910
1217.00,0.1932
1216.50,0.1953
1216.00,0.1975
1215.50,0.1997
1215.00,0.2020
1214.50,0.2043
1214.00,0.2066
1213.50,0.2090
1213.00,0.2113
1212.50,0.2137
1212.00,0.2161
1211.50,0.2185
1211.00,0.2209
1210.50,0.2233
1210.00,0.2256
1209.50,0.2280
1209.00,0.2304
1208.50,0.2328
1208.00,0.2351
1207.50,0.2374
1207.00,0.2397
1206.50,0.2420
1206.00,0.2443
1205.50,0.2465
1205.00,0.2487
1204.50,0.2509
1204.00,0.2530
1203.50,0.2551
1203.00,0.2572
1202.50,0.2592
1202.00,0.2611
1201.50,0.2631
1201.00,0.2650
1200.50,0.2669
1200.00,0.2687
1199.50,0.2705
1199.00,0.2723
1198.50,0.2740
1198.00,0.2756
1197.50,0.2772
1197.00,0.2789
1196.50,0.2805
1196.00,0.2819
1195.50,0.2834
1195.00,0.2849
1194.50,0.2863
1194.00,0.2876
1193.50,0.2890
1193.00,0.2903
1192.50,0.2916
1192.00,0.2928
1191.50,0.2940
1191.00,0.2952
1190.50,0.2963
1190.00,0.2974
1189.50,0.2985
1189.00,0.2997
1188.50,0.3008
1188.00,0.3018
1187.50,0.3028
1187.00,0.3039
1186.50,0.3048
1186.00,0.3058
1185.50,0.3067
1185.00,0.3077
1184.50,0.3086
1184.00,0.3095
1183.50,0.3104
1183.00,0.3114
1182.50,0.3124
1182.00,0.3132
1181.50,0.3141
1181.00,0.3151
1180.50,0.3160
1180.00,0.3169
1179.50,0.3178
1179.00,0.3189
1178.50,0.3198
1178.00,0.3208
1177.50,0.3218
1177.00,0.3229
1176.50,0.3239
1176.00,0.3250
1175.50,0.3261
1175.00,0.3272
1174.50,0.3284
1174.00,0.3294
1173.50,0.3305
1173.00,0.3317
1172.50,0.3328
1172.00,0.3339
1171.50,0.3349
1171.00,0.3361
1170.50,0.3372
1170.00,0.3383
1169.50,0.3394
1169.00,0.3406
1168.50,0.3418
1168.00,0.3430
1167.50,0.3443
1167.00,0.3456
1166.50,0.3469
1166.00,0.3482
1165.50,0.3496
1165.00,0.3510
1164.50,0.3525
1164.00,0.3540
1163.50,0.3555
1163.00,0.3571
1162.50,0.3587
1162.00,0.3603
1161.50,0.3620
1161.00,0.3638
1160.50,0.3656
1160.00,0.3674
1159.50,0.3692
1159.00,0.3712
1158.50,0.3732
1158.00,0.3752
1157.50,0.3773
1157.00,0.3795
1156.50,0.3817
1156.00,0.3839
1155.50,0.3862
1155.00,0.3886
1154.50,0.3911
1154.00,0.3936
1153.50,0.3962
1153.00,0.3989
1152.50,0.4016
1152.00,0.4043
1151.50,0.4072
1151.00,0.4102
1150.50,0.4133
1150.00,0.4164
1149.50,0.4196
1149.00,0.4230
1148.50,0.4264
1148.00,0.4298
1147.50,0.4334
1147.00,0.4372
1146.50,0.4411
1146.00,0.4450
1145.50,0.4491
1145.00,0.4533
1144.50,0.4576
1144.00,0.4620
1143.50,0.4666
1143.00,0.4714
1142.50,0.4762
1142.00,0.4811
1141.50,0.4863
1141.00,0.4916
1140.50,0.4971
1140.00,0.5027
1139.50,0.5084
1139.00,0.5144
1138.50,0.5204
1138.00,0.5265
1137.50,0.5328
1137.00,0.5394
1136.50,0.5460
1136.00,0.5528
1135.50,0.5599
1135.00,0.5673
1134.50,0.5749
1134.00,0.5826
1133.50,0.5906
1133.00,0.5991
1132.50,0.6077
1132.00,0.6165
1131.50,0.6257
1131.00,0.6353
1130.50,0.6452
1130.00,0.6552
1129.50,0.6656
1129.00,0.6766
1128.50,0.6878
1128.00,0.6991
1127.50,0.7108
1127.00,0.7230
1126.50,0.7354
1126.00,0.7480
1125.50,0.7611
1125.00,0.7747
1124.50,0.7885
1124.00,0.8023
1123.50,0.8167
1123.00,0.8316
1122.50,0.8467
1122.00,0.8619
1121.50,0.8776
1121.00,0.8939
1120.50,0.9103
1120.00,0.9266
1119.50,0.9433
1119.00,0.9605
1118.50,0.9778
1118.00,0.9949
1117.50,1.0124
1117.00,1.0305
1116.50,1.0485
1116.00,1.0660
1115.50,1.0839
1115.00,1.1024
1114.50,1.1207
1114.00,1.1384
1113.50,1.1565
1113.00,1.1752
1112.50,1.1935
1112.00,1.2110
1111.50,1.2288
1111.00,1.2472
1110.50,1.2651
1110.00,1.2821
1109.50,1.2993
1109.00,1.3173
1108.50,1.3346
1108.00,1.3506
1107.50,1.3669
1107.00,1.3840
1106.50,1.4003
1106.00,1.4151
1105.50,1.4303
1105.00,1.4462
1104.50,1.4608
1104.00,1.4739
1103.50,1.4876
1103.00,1.5023
1102.50,1.5157
1102.00,1.5269
1101.50,1.5387
1101.00,1.5517
1100.50,1.5632
1100.00,1.5726
1099.50,1.5826
1099.00,1.5938
1098.50,1.6035
1098.00,1.6109
1097.50,1.6193
1097.00,1.6294
1096.50,1.6376
1096.00,1.6430
1095.50,1.6488
1095.00,1.6562
1094.50,1.6617
1094.00,1.6650
1093.50,1.6695
1093.00,1.6760
1092.50,1.6805
1092.00,1.6819
1091.50,1.6840
1091.00,1.6879
1090.50,1.6902
1090.00,1.6899
1089.50,1.6907
1089.00,1.6934
1088.50,1.6942
1088.00,1.6922
1087.50,1.6911
1087.00,1.6917
1086.50,1.6907
1086.00,1.6875
1085.50,1.6858
1085.00,1.6861
1084.50,1.6846
1084.00,1.6805
1083.50,1.6774
1083.00,1.6763
1082.50,1.6735
1082.00,1.6685
1081.50,1.6647
1081.00,1.6628
1080.50,1.6593
1080.00,1.6535
1079.50,1.6485
1079.00,1.6452
1078.50,1.6404
1078.00,1.6339
1077.50,1.6290
1077.00,1.6262
1076.50,1.6220
1076.00,1.6156
1075.50,1.6102
1075.00,1.6064
1074.50,1.6012
1074.00,1.5942
1073.50,1.5884
1073.00,1.5844
1072.50,1.5794
1072.00,1.5727
1071.50,1.5669
1071.00,1.5627
1070.50,1.5576
1070.00,1.5510
1069.50,1.5452
1069.00,1.5407
1068.50,1.5351
1068.00,1.5283
1067.50,1.5225
1067.00,1.5181
1066.50,1.5127
1066.00,1.5059
1065.50,1.5000
1065.00,1.4955
1064.50,1.4902
1064.00,1.4834
1063.50,1.4774
1063.00,1.4728
1062.50,1.4678
1062.00,1.4617
1061.50,1.4564
1061.00,1.4521
1060.50,1.4470
1060.00,1.4407
1059.50,1.4353
1059.00,1.4310
1058.50,1.4259
1058.00,1.4197
1057.50,1.4143
1057.00,1.4103
1056.50,1.4057
1056.00,1.4002
1055.50,1.3952
1055.00,1.3912
1054.50,1.3868
1054.00,1.3815
1053.50,1.3773
1053.00,1.3746
1052.50,1.3713
1052.00,1.3668
1051.50,1.3627
1051.00,1.3597
1050.50,1.3560
1050.00,1.3516
1049.50,1.3484
1049.00,1.3467
1048.50,1.3446
1048.00,1.3414
1047.50,1.3389
1047.00,1.3375
1046.50,1.3357
1046.00,1.3332
1045.50,1.3316
1045.00,1.3311
1044.50,1.3304
1044.00,1.3290
1043.50,1.3282
1043.00,1.3282
1042.50,1.3279
1042.00,1.3268
1041.50,1.3265
1041.00,1.3273
1040.50,1.3280
1040.00,1.3280
1039.50,1.3285
1039.00,1.3300
1038.50,1.3310
1038.00,1.3314
1037.50,1.3324
1037.00,1.3344
1036.50,1.3361
1036.00,1.3373
1035.50,1.3391
1035.00,1.3419
1034.50,1.3441
1034.00,1.3457
1033.50,1.3478
1033.00,1.3509
1032.50,1.3537
1032.00,1.3557
1031.50,1.3582
1031.00,1.3616
1030.50,1.3645
1030.00,1.3666
1029.50,1.3691
1029.00,1.3726
1028.50,1.3758
1028.00,1.3781
1027.50,1.3808
1027.00,1.3843
1026.50,1.3872
1026.00,1.3891
1025.50,1.3914
1025.00,1.3946
1024.50,1.3972
1024.00,1.3987
1023.50,1.4004
1023.00,1.4026
1022.50,1.4038
1022.00,1.4037
1021.50,1.4035
1021.00,1.4036
1020.50,1.4027
1020.00,1.4002
1019.50,1.3975
1019.00,1.3949
1018.50,1.3908
1018.00,1.3850
1017.50,1.3786
1017.00,1.3716
1016.50,1.3627
1016.00,1.3517
1015.50,1.3399
1015.00,1.3277
1014.50,1.3140
1014.00,1.2984
1013.50,1.2819
1013.00,1.2649
1012.50,1.2463
1012.00,1.2261
1011.50,1.2056
1011.00,1.1850
1010.50,1.1637
1010.00,1.1416
1009.50,1.1196
1009.00,1.0980
1008.50,1.0763
1008.00,1.0545
1007.50,1.0333
1007.00,1.0129
1006.50,0.9928
1006.00,0.9731
1005.50,0.9541
1005.00,0.9360
1004.50,0.9183
1004.00,0.9011
1003.50,0.8848
1003.00,0.8693
1002.50,0.8545
1002.00,0.8401
1001.50,0.8265
1001.00,0.8138
1000.50,0.8017
1000.00,0.7902
999.50,0.7794
999.00,0.7693
998.50,0.7598
998.00,0.7507
997.50,0.7422
997.00,0.7344
996.50,0.7270
996.00,0.7199
995.50,0.7133
995.00,0.7073
994.50,0.7016
994.00,0.6961
993.50,0.6911
993.00,0.6865
992.50,0.6822
992.00,0.6780
991.50,0.6741
991.00,0.6707
990.50,0.6674
990.00,0.6643
989.50,0.6615
989.00,0.6590
988.50,0.6567
988.00,0.6545
987.50,0.6525
987.00,0.6508
986.50,0.6491
986.00,0.6475
985.50,0.6461
985.00,0.6450
984.50,0.6439
984.00,0.6430
983.50,0.6422
983.00,0.6416
982.50,0.6411
982.00,0.6407
981.50,0.6403
981.00,0.6403
980.50,0.6403
980.00,0.6403
979.50,0.6404
979.00,0.6408
978.50,0.6412
978.00,0.6416
977.50,0.6421
977.00,0.6428
976.50,0.6435
976.00,0.6442
975.50,0.6450
975.00,0.6461
974.50,0.6472
974.00,0.6482
973.50,0.6494
973.00,0.6507
972.50,0.6521
972.00,0.6534
971.50,0.6548
971.00,0.6564
970.50,0.6581
970.00,0.6597
969.50,0.6614
969.00,0.6632
968.50,0.6651
968.00,0.6669
967.50,0.6688
967.00,0.6709
966.50,0.6731
966.00,0.6752
965.50,0.6774
965.00,0.6797
964.50,0.6821
964.00,0.6845
963.50,0.6869
963.00,0.6895
962.50,0.6921
962.00,0.6947
961.50,0.6973
961.00,0.7002
960.50,0.7029
960.00,0.7056
959.50,0.7084
959.00,0.7113
958.50,0.7142
958.00,0.7170
957.50,0.7197
957.00,0.7226
956.50,0.7254
956.00,0.7281
955.50,0.7308
955.00,0.7336
954.50,0.7364
954.00,0.7389
953.50,0.7414
953.00,0.7440
952.50,0.7465
952.00,0.7489
951.50,0.7514
951.00,0.7541
950.50,0.7568
950.00,0.7594
949.50,0.7622
949.00,0.7652
948.50,0.7682
948.00,0.7711
947.50,0.7742
947.00,0.7774
946.50,0.7807
946.00,0.7839
945.50,0.7873
945.00,0.7909
944.50,0.7944
944.00,0.7978
943.50,0.8013
943.00,0.8050
942.50,0.8087
942.00,0.8123
941.50,0.8161
941.00,0.8201
940.50,0.8240
940.00,0.8279
939.50,0.8318
939.00,0.8360
938.50,0.8402
938.00,0.8443
937.50,0.8484
937.00,0.8528
936.50,0.8571
936.00,0.8613
935.50,0.8657
935.00,0.8704
934.50,0.8751
934.00,0.8797
933.50,0.8843
933.00,0.8892
932.50,0.8941
932.00,0.8988
931.50,0.9038
931.00,0.9090
930.50,0.9141
930.00,0.9191
929.50,0.9242
929.00,0.9296
928.50,0.9350
928.00,0.9401
927.50,0.9453
927.00,0.9507
926.50,0.9560
926.00,0.9612
925.50,0.9667
925.00,0.9724
924.50,0.9780
924.00,0.9834
923.50,0.9889
923.00,0.9948
922.50,1.0008
922.00,1.0068
921.50,1.0130
921.00,1.0196
920.50,1.0261
920.00,1.0324
919.50,1.0390
919.00,1.0460
918.50,1.0531
918.00,1.0598
917.50,1.0668
917.00,1.0740
916.50,1.0810
916.00,1.0875
915.50,1.0940
915.00,1.1007
914.50,1.1071
914.00,1.1130
913.50,1.1189
913.00,1.1249
912.50,1.1307
912.00,1.1360
911.50,1.1413
911.00,1.1470
910.50,1.1523
910.00,1.1572
909.50,1.1621
909.00,1.1674
908.50,1.1724
908.00,1.1769
907.50,1.1816
907.00,1.1869
906.50,1.1920
906.00,1.1968
905.50,1.2019
905.00,1.2075
904.50,1.2132
904.00,1.2186
903.50,1.2243
903.00,1.2306
902.50,1.2369
902.00,1.2428
901.50,1.2491
901.00,1.2561
900.50,1.2630
900.00,1.2696
899.50,1.2766
899.00,1.2842
898.50,1.2919
898.00,1.2991
897.50,1.3065
897.00,1.3144
896.50,1.3222
896.00,1.3296
895.50,1.3372
895.00,1.3455
894.50,1.3536
894.00,1.3611
893.50,1.3688
893.00,1.3773
892.50,1.3855
892.00,1.3931
891.50,1.4010
891.00,1.4097
890.50,1.4181
890.00,1.4260
889.50,1.4345
889.00,1.4438
888.50,1.4528
888.00,1.4612
887.50,1.4701
887.00,1.4803
886.50,1.4903
886.00,1.4996
885.50,1.5095
885.00,1.5210
884.50,1.5325
884.00,1.5431
883.50,1.5543
883.00,1.5667
882.50,1.5789
882.00,1.5899
881.50,1.6013
881.00,1.6140
880.50,1.6264
880.00,1.6381
879.50,1.6506
879.00,1.6647
878.50,1.6782
878.00,1.6902
877.50,1.7031
877.00,1.7181
876.50,1.7333
876.00,1.7475
875.50,1.7629
875.00,1.7799
874.50,1.7954
874.00,1.8082
873.50,1.8218
873.00,1.8378
872.50,1.8536
872.00,1.8673
871.50,1.8818
871.00,1.8983
870.50,1.9129
870.00,1.9240
869.50,1.9350
869.00,1.9478
868.50,1.9585
868.00,1.9658
867.50,1.9736
867.00,1.9837
866.50,1.9918
866.00,1.9961
865.50,2.0007
865.00,2.0079
864.50,2.0134
864.00,2.0156
863.50,2.0186
863.00,2.0241
862.50,2.0277
862.00,2.0277
861.50,2.0292
861.00,2.0345
860.50,2.0390
860.00,2.0403
859.50,2.0427
859.00,2.0489
858.50,2.0547
858.00,2.0579
857.50,2.0625
857.00,2.0705
856.50,2.0777
856.00,2.0817
855.50,2.0872
855.00,2.0972
854.50,2.1071
854.00,2.1141
853.50,2.1222
853.00,2.1337
852.50,2.1440
852.00,2.1509
851.50,2.1599
851.00,2.1735
850.50,2.1857
850.00,2.1932
849.50,2.2020
849.00,2.2153
848.50,2.2271
848.00,2.2338
847.50,2.2411
847.00,2.2516
846.50,2.2591
846.00,2.2612
845.50,2.2661
845.00,2.2769
844.50,2.2844
844.00,2.2836
843.50,2.2826
843.00,2.2869
842.50,2.2906
842.00,2.2900
841.50,2.2914
841.00,2.2978
840.50,2.3017
840.00,2.2996
839.50,2.2996
839.00,2.3053
838.50,2.3091
838.00,2.3072
837.50,2.3080
837.00,2.3158
836.50,2.3225
836.00,2.3222
835.50,2.3224
835.00,2.3284
834.50,2.3335
834.00,2.3339
833.50,2.3375
833.00,2.3483
832.50,2.3573
832.00,2.3594
831.50,2.3630
831.00,2.3733
830.50,2.3813
830.00,2.3820
829.50,2.3854
829.00,2.3971
828.50,2.4068
828.00,2.4082
827.50,2.4132
827.00,2.4276
826.50,2.4380
826.00,2.4366
825.50,2.4377
825.00,2.4500
824.50,2.4592
824.00,2.4565
823.50,2.4560
823.00,2.4664
822.50,2.4738
822.00,2.4704
821.50,2.4699
821.00,2.4798
820.50,2.4883
820.00,2.4878
819.50,2.4893
819.00,2.4982
818.50,2.5029
818.00,2.4985
817.50,2.4976
817.00,2.5038
816.50,2.5028
816.00,2.4905
815.50,2.4838
815.00,2.4913
814.50,2.5004
814.00,2.5012
813.50,2.5029
813.00,2.5108
812.50,2.5134
812.00,2.5055
811.50,2.5003
811.00,2.5040
810.50,2.5050
810.00,2.4981
809.50,2.4954
809.00,2.5031
808.50,2.5086
808.00,2.5044
807.50,2.5016
807.00,2.5070
806.50,2.5091
806.00,2.5007
805.50,2.4929
805.00,2.4948
804.50,2.4990
804.00,2.4995
803.50,2.5039
803.00,2.5142
802.50,2.5176
802.00,2.5103
801.50,2.5073
801.00,2.5152
800.50,2.5214
800.00,2.5176
799.50,2.5136
799.00,2.5168
798.50,2.5176
798.00,2.5101
797.50,2.5049
797.00,2.5083
796.50,2.5107
796.00,2.5073
795.50,2.5087
795.00,2.5191
794.50,2.5249
794.00,2.5180
793.50,2.5110
793.00,2.5134
792.50,2.5172
792.00,2.5145
791.50,2.5127
791.00,2.5170
790.50,2.5187
790.00,2.5130
789.50,2.5099
789.00,2.5151
788.50,2.5196
788.00,2.5182
787.50,2.5196
787.00,2.5275
786.50,2.5310
786.00,2.5252
785.50,2.5224
785.00,2.5286
784.50,2.5327
784.00,2.5272
783.50,2.5214
783.00,2.5215
782.50,2.5192
782.00,2.5112
781.50,2.5077
781.00,2.5136
780.50,2.5187
780.00,2.5179
779.50,2.5199
779.00,2.5283
778.50,2.5319
778.00,2.5265
777.50,2.5253
777.00,2.5345
776.50,2.5419
776.00,2.5383
775.50,2.5343
775.00,2.5386
774.50,2.5426
774.00,2.5391
773.50,2.5358
773.00,2.5381
772.50,2.5371
772.00,2.5291
771.50,2.5254
771.00,2.5307
770.50,2.5338
770.00,2.5281
769.50,2.5241
769.00,2.5297
768.50,2.5349
768.00,2.5314
767.50,2.5265
767.00,2.5267
766.50,2.5258
766.00,2.5215
765.50,2.5230
765.00,2.5336
764.50,2.5409
764.00,2.5372
763.50,2.5338
763.00,2.5397
762.50,2.5455
762.00,2.5416
761.50,2.5349
761.00,2.5331
760.50,2.5327
760.00,2.5317
759.50,2.5364
759.00,2.5467
758.50,2.5495
758.00,2.5399
757.50,2.5311
757.00,2.5321
756.50,2.5346
756.00,2.5322
755.50,2.5333
755.00,2.5421
754.50,2.5478
754.00,2.5446
753.50,2.5428
753.00,2.5484
752.50,2.5511
752.00,2.5431
751.50,2.5350
751.00,2.5367
750.50,2.5413
750.00,2.5414
749.50,2.5423
749.00,2.5469
748.50,2.5478
748.00,2.5417
747.50,2.5387
747.00,2.5447
746.50,2.5504
746.00,2.5472
745.50,2.5426
745.00,2.5441
744.50,2.5455
744.00,2.5400
743.50,2.5345
743.00,2.5351
742.50,2.5366
742.00,2.5355
741.50,2.5382
741.00,2.5468
740.50,2.5513
740.00,2.5464
739.50,2.5409
739.00,2.5409
738.50,2.5411
738.00,2.5385
737.50,2.5397
737.00,2.5472
736.50,2.5516
736.00,2.5479
735.50,2.5459
735.00,2.5515
734.50,2.5553
734.00,2.5510
733.50,2.5482
733.00,2.5526
732.50,2.5539
732.00,2.5453
731.50,2.5372
731.00,2.5385
730.50,2.5443
730.00,2.5475
729.50,2.5512
729.00,2.5572
728.50,2.5562
728.00,2.5464
727.50,2.5408
727.00,2.5463
726.50,2.5527
726.00,2.5505
725.50,2.5462
725.00,2.5494
724.50,2.5548
724.00,2.5534
723.50,2.5491
723.00,2.5489
722.50,2.5506
722.00,2.5485
721.50,2.5448
721.00,2.5437
720.50,2.5418
720.00,2.5383
719.50,2.5411
719.00,2.5501
718.50,2.5535
718.00,2.5462
717.50,2.5391
717.00,2.5418
716.50,2.5480
716.00,2.5491
715.50,2.5491
715.00,2.5528
714.50,2.5545
714.00,2.5497
713.50,2.5454
713.00,2.5480
712.50,2.5529
712.00,2.5539
711.50,2.5540
711.00,2.5562
710.50,2.5550
710.00,2.5480
709.50,2.5431
709.00,2.5455
708.50,2.5490
708.00,2.5489
707.50,2.5498
707.00,2.5556
706.50,2.5595
706.00,2.5556
705.50,2.5504
705.00,2.5503
704.50,2.5509
704.00,2.5475
703.50,2.5453
703.00,2.5493
702.50,2.5549
702.00,2.5572
701.50,2.5604
701.00,2.5653
700.50,2.5646
700.00,2.5574
699.50,2.5543
699.00,2.5612
698.50,2.5696
698.00,2.5703
697.50,2.5672
697.00,2.5663
696.50,2.5649
696.00,2.5611
695.50,2.5610
695.00,2.5673
694.50,2.5712
694.00,2.5672
693.50,2.5633
693.00,2.5662
692.50,2.5684
692.00,2.5620
691.50,2.5533
691.00,2.5505
690.50,2.5503
690.00,2.5477
689.50,2.5475
689.00,2.5554
688.50,2.5649
688.00,2.5670
687.50,2.5648
687.00,2.5649
686.50,2.5647
686.00,2.5604
685.50,2.5565
685.00,2.5593
684.50,2.5661
684.00,2.5704
683.50,2.5728
683.00,2.5743
682.50,2.5693
682.00,2.5584
681.50,2.5533
681.00,2.5602
680.50,2.5702
680.00,2.5742
679.50,2.5748
679.00,2.5757
678.50,2.5729
678.00,2.5661
677.50,2.5627
677.00,2.5661
676.50,2.5698
676.00,2.5678
675.50,2.5652
675.00,2.5674
674.50,2.5710
674.00,2.5744
673.50,2.5826
673.00,2.5939
672.50,2.5981
672.00,2.5904
671.50,2.5780
671.00,2.5704
670.50,2.5647
670.00,2.5570
669.50,2.5527
669.00,2.5631
668.50,2.5882
668.00,2.6032
667.50,2.6097
667.00,2.6178
666.50,2.6165
666.00,2.6092
665.50,2.6028
665.00,2.5997
664.50,2.5970
664.00,2.5914
663.50,2.5883
663.00,2.5905
662.50,2.5920
662.00,2.5888
661.50,2.5860
661.00,2.5858
660.50,2.5816
660.00,2.5706
659.50,2.5624
659.00,2.5656
658.50,2.5769
658.00,2.5856
657.50,2.5870
657.00,2.5835
656.50,2.5760
656.00,2.5678
655.50,2.5661
655.00,2.5735
654.50,2.5829
654.00,2.5874
653.50,2.5930
653.00,2.6057
652.50,2.6166
652.00,2.6168
651.50,2.6121
651.00,2.6112
650.50,2.6118
650.00,2.6071
649.50,2.5971
649.00,2.5857
648.50,2.5746
648.00,2.5665
647.50,2.5673
647.00,2.5774
646.50,2.5895
646.00,2.5953
645.50,2.5945
645.00,2.5917
644.50,2.5866
644.00,2.5787
643.50,2.5757
643.00,2.5830
642.50,2.5968
642.00,2.6083
641.50,2.6113
641.00,2.6062
640.50,2.5977
640.00,2.5894
639.50,2.5832
639.00,2.5806
638.50,2.5827
638.00,2.5904
637.50,2.6035
637.00,2.6189
636.50,2.6313
636.00,2.6407
635.50,2.6456
635.00,2.6417
634.50,2.6275
634.00,2.6064
633.50,2.5893
633.00,2.5849
632.50,2.5892
632.00,2.5936
631.50,2.5958
631.00,2.5988
630.50,2.6033
630.00,2.6057
629.50,2.6046
629.00,2.6018
628.50,2.5972
628.00,2.5900
627.50,2.5831
627.00,2.5808
626.50,2.5835
626.00,2.5915
625.50,2.6064
625.00,2.6235
624.50,2.6338
624.00,2.6344
623.50,2.6301
623.00,2.6277
622.50,2.6253
622.00,2.6184
621.50,2.6113
621.00,2.6097
620.50,2.6108
620.00,2.6130
619.50,2.6177
619.00,2.6254
618.50,2.6343
618.00,2.6404
617.50,2.6414
617.00,2.6370
616.50,2.6291
616.00,2.6225
615.50,2.6212
615.00,2.6259
614.50,2.6317
614.00,2.6314
613.50,2.6252
613.00,2.6191
612.50,2.6185
612.00,2.6238
611.50,2.6321
611.00,2.6414
610.50,2.6480
610.00,2.6498
609.50,2.6482
609.00,2.6448
608.50,2.6387
608.00,2.6319
607.50,2.6293
607.00,2.6322
606.50,2.6384
606.00,2.6456
605.50,2.6507
605.00,2.6532
604.50,2.6527
604.00,2.6494
603.50,2.6469
603.00,2.6520
602.50,2.6648
602.00,2.6838
601.50,2.7059
601.00,2.7015
600.50,2.6807
600.00,2.6829
599.50,2.6778
599.00,2.6498
598.50,2.6286
598.00,2.6191
597.50,2.6145
597.00,2.6157
596.50,2.6251
596.00,2.6398
595.50,2.6538
595.00,2.6638
594.50,2.6668
594.00,2.6637
593.50,2.6576
593.00,2.6516
592.50,2.6495
592.00,2.6510
591.50,2.6533
591.00,2.6591
590.50,2.6669
590.00,2.6680
589.50,2.6577
589.00,2.6435
588.50,2.6374
588.00,2.6426
587.50,2.6535
587.00,2.6630
586.50,2.6688
586.00,2.6699
585.50,2.6640
585.00,2.6557
584.50,2.6486
584.00,2.6433
583.50,2.6379
583.00,2.6329
582.50,2.6327
582.00,2.6364
581.50,2.6387
581.00,2.6399
580.50,2.6451
580.00,2.6556
579.50,2.6628
579.00,2.6647
578.50,2.6707
578.00,2.6809
577.50,2.6814
577.00,2.6704
576.50,2.6617
576.00,2.6643
575.50,2.6742
575.00,2.6861
574.50,2.6981
574.00,2.7056
573.50,2.6982
573.00,2.6787
572.50,2.6671
572.00,2.6739
571.50,2.6883
571.00,2.6892
570.50,2.6749
570.00,2.6614
569.50,2.6551
569.00,2.6574
568.50,2.6723
568.00,2.6940
567.50,2.7034
567.00,2.6954
566.50,2.6824
566.00,2.6755
565.50,2.6730
565.00,2.6706
564.50,2.6742
564.00,2.6893
563.50,2.7049
563.00,2.7063
562.50,2.6942
562.00,2.6780
561.50,2.6591
561.00,2.6430
560.50,2.6418
560.00,2.6540
559.50,2.6631
559.00,2.6614
558.50,2.6595
558.00,2.6676
557.50,2.6763
557.00,2.6740
556.50,2.6693
556.00,2.6678
555.50,2.6627
555.00,2.6553
554.50,2.6546
554.00,2.6649
553.50,2.6796
553.00,2.6907
552.50,2.6965
552.00,2.7024
551.50,2.6961
551.00,2.6698
550.50,2.6463
550.00,2.6411
549.50,2.6472
549.00,2.6560
548.50,2.6673
548.00,2.6790
547.50,2.6768
547.00,2.6617
546.50,2.6548
546.00,2.6663
545.50,2.6851
545.00,2.6947
544.50,2.6915
544.00,2.6850
543.50,2.6762
543.00,2.6663
542.50,2.6708
542.00,2.6930
541.50,2.7120
541.00,2.7138
540.50,2.7050
540.00,2.6932
539.50,2.6742
539.00,2.6535
538.50,2.6492
538.00,2.6640
537.50,2.6737
537.00,2.6671
536.50,2.6603
536.00,2.6652
535.50,2.6739
535.00,2.6758
534.50,2.6758
534.00,2.6781
533.50,2.6739
533.00,2.6629
532.50,2.6670
532.00,2.6954
531.50,2.7180
531.00,2.7075
530.50,2.6855
530.00,2.6756
529.50,2.6658
529.00,2.6508
528.50,2.6494
528.00,2.6693
527.50,2.6869
527.00,2.6812
526.50,2.6693
526.00,2.6725
525.50,2.6788
525.00,2.6745
524.50,2.6713
524.00,2.6785
523.50,2.6806
523.00,2.6674
522.50,2.6549
522.00,2.6588
521.50,2.6650
521.00,2.6590
520.50,2.6526
520.00,2.6563
519.50,2.6609
519.00,2.6586
518.50,2.6642
518.00,2.6908
517.50,2.7074
517.00,2.6866
516.50,2.6572
516.00,2.6414
515.50,2.6256
515.00,2.6030
514.50,2.5940
514.00,2.6165
513.50,2.6551
513.00,2.6888
512.50,2.7239
512.00,2.7743
511.50,2.8164
511.00,2.8133
510.50,2.7904
510.00,2.7828
509.50,2.7654
509.00,2.7268
508.50,2.7071
508.00,2.7213
507.50,2.7385
507.00,2.7363
506.50,2.7291
506.00,2.7366
505.50,2.7339
505.00,2.6967
504.50,2.6610
504.00,2.6495
503.50,2.6491
503.00,2.6586
502.50,2.6905
502.00,2.7438
501.50,2.7717
501.00,2.7473
500.50,2.7266
500.00,2.7494
499.50,2.7790
499.00,2.7637
498.50,2.7363
498.00,2.7338
497.50,2.7221
497.00,2.6899
496.50,2.6724
496.00,2.6892
495.50,2.7149
495.00,2.7157
494.50,2.7092
494.00,2.7253
493.50,2.7455
493.00,2.7372
492.50,2.7254
492.00,2.7419
491.50,2.7507
491.00,2.7238
490.50,2.6999
490.00,2.6991
489.50,2.6863
489.00,2.6470
488.50,2.6155
488.00,2.6138
487.50,2.6227
487.00,2.6281
486.50,2.6605
486.00,2.7375
485.50,2.8029
485.00,2.8035
484.50,2.7865
484.00,2.8049
483.50,2.8042
483.00,2.7406
482.50,2.6867
482.00,2.6848
481.50,2.7059
481.00,2.7090
480.50,2.7147
480.00,2.7427
479.50,2.7383
479.00,2.6817
478.50,2.6420
478.00,2.6619
477.50,2.7164
477.00,2.7563
476.50,2.7893
476.00,2.8498
475.50,2.8787
475.00,2.8236
474.50,2.7729
474.00,2.7677
473.50,2.7506
473.00,2.7217
472.50,2.7228
472.00,2.7603
471.50,2.7613
471.00,2.6992
470.50,2.6652
470.00,2.7113
469.50,2.7868
469.00,2.7911
468.50,2.7688
468.00,2.8012
467.50,2.8274
467.00,2.7854
466.50,2.7539
466.00,2.7811
465.50,2.8062
465.00,2.7799
464.50,2.7531
464.00,2.7605
463.50,2.7470
463.00,2.6734
462.50,2.6114
462.00,2.6204
461.50,2.6669
461.00,2.6790
460.50,2.6698
460.00,2.6938
459.50,2.7199
459.00,2.7085
458.50,2.7239
458.00,2.8279
457.50,2.8650
457.00,2.7070
456.50,2.5777
456.00,2.5479
455.50,2.5597
455.00,2.5625
454.50,2.5835
454.00,2.6435
453.50,2.6778
453.00,2.6441
452.50,2.6322
452.00,2.7025
451.50,2.7872
451.00,2.8286
450.50,2.8536
450.00,2.9252
449.50,2.9778
449.00,2.8854
448.50,2.7992
448.00,2.8123
447.50,2.8243
447.00,2.7320
446.50,2.6574
446.00,2.6831
445.50,2.7420
445.00,2.7474
444.50,2.7655
444.00,2.8882
443.50,3.0021
443.00,2.9340
442.50,2.8564
442.00,2.8761
441.50,2.8888
441.00,2.7700
440.50,2.6773
440.00,2.7136
439.50,2.8004
439.00,2.8102
438.50,2.7960
438.00,2.8406
437.50,2.8707
437.00,2.8224
436.50,2.7927
436.00,2.8669
435.50,2.9343
435.00,2.8426
434.50,2.7656
434.00,2.7968
433.50,2.8453
433.00,2.8136
432.50,2.7818
432.00,2.8742
431.50,3.0034
431.00,2.9180
430.50,2.7768
430.00,2.7765
429.50,2.8214
429.00,2.7636
428.50,2.7229
428.00,2.8494
427.50,3.1214
427.00,3.2133
426.50,3.1518
426.00,3.1653
425.50,3.0652
425.00,2.8321
424.50,2.7506
424.00,2.9292
423.50,3.2837
423.00,3.1706
422.50,2.8975
422.00,2.8671
421.50,2.9153
421.00,2.8189
420.50,2.7564
420.00,2.9518
419.50,3.0264
419.00,2.9267
418.50,3.0444
418.00,3.1713
417.50,3.1862
417.00,3.0454
416.50,2.8487
416.00,2.8550
415.50,2.9953
415.00,3.0884
414.50,3.1198
414.00,3.4233
413.50,3.7554
413.00,2.9759
412.50,2.6132
412.00,2.5551
411.50,2.6195
411.00,2.6713
410.50,2.7509
410.00,3.0045
409.50,3.2510
409.00,2.9601
408.50,2.8159
408.00,3.0166
407.50,3.3145
407.00,2.9214
406.50,2.6725
406.00,2.7072
405.50,2.7557
405.00,2.5967
404.50,2.5044
404.00,2.6348
403.50,3.0619
403.00,3.5404
402.50,3.2331
402.00,2.8411
401.50,2.6562
401.00,2.8119
400.50,3.2512
400.00,3.0544
