Created as New Dataset,Sample 014 By irlear Date Monday, July 06 2009
cm-1,A
4000.00,0.0396
3999.50,0.0396
3999.00,0.0396
3998.50,0.0396
3998.00,0.0396
3997.50,0.0396
3997.00,0.0396
3996.50,0.0396
3996.00,0.0396
3995.50,0.0396
3995.00,0.0395
3994.50,0.0395
3994.00,0.0395
3993.50,0.0395
3993.00,0.0395
3992.50,0.0395
3992.00,0.0395
3991.50,0.0395
3991.00,0.0395
3990.50,0.0395
3990.00,0.0395
3989.50,0.0395
3989.00,0.0395
3988.50,0.0394
3988.00,0.0394
3987.50,0.0394
3987.00,0.0394
3986.50,0.0394
3986.00,0.0394
3985.50,0.0394
3985.00,0.0393
3984.50,0.0393
3984.00,0.0393
3983.50,0.0393
3983.00,0.0394
3982.50,0.0394
3982.00,0.0394
3981.50,0.0394
3981.00,0.0394
3980.50,0.0394
3980.00,0.0393
3979.50,0.0393
3979.00,0.0393
3978.50,0.0393
3978.00,0.0393
3977.50,0.0393
3977.00,0.0393
3976.50,0.0393
3976.00,0.0393
3975.50,0.0393
3975.00,0.0393
3974.50,0.0392
3974.00,0.0392
3973.50,0.0392
3973.00,0.0392
3972.50,0.0392
3972.00,0.0392
3971.50,0.0392
3971.00,0.0392
3970.50,0.0392
3970.00,0.0392
3969.50,0.0392
3969.00,0.0392
3968.50,0.0392
3968.00,0.0392
3967.50,0.0392
3967.00,0.0392
3966.50,0.0392
3966.00,0.0392
3965.50,0.0392
3965.00,0.0392
3964.50,0.0392
3964.00,0.0392
3963.50,0.0392
3963.00,0.0392
3962.50,0.0391
3962.00,0.0391
3961.50,0.0391
3961.00,0.0391
3960.50,0.0391
3960.00,0.0391
3959.50,0.0391
3959.00,0.0391
3958.50,0.0391
3958.00,0.0391
3957.50,0.0391
3957.00,0.0391
3956.50,0.0391
3956.00,0.0391
3955.50,0.0391
3955.00,0.0391
3954.50,0.0391
3954.00,0.0391
3953.50,0.0391
3953.00,0.0391
3952.50,0.0391
3952.00,0.0391
3951.50,0.0390
3951.00,0.0390
3950.50,0.0390
3950.00,0.0390
3949.50,0.0390
3949.00,0.0390
3948.50,0.0390
3948.00,0.0390
3947.50,0.0390
3947.00,0.0390
3946.50,0.0390
3946.00,0.0390
3945.50,0.0390
3945.00,0.0390
3944.50,0.0390
3944.00,0.0390
3943.50,0.0389
3943.00,0.0389
3942.50,0.0389
3942.00,0.0389
3941.50,0.0389
3941.00,0.0389
3940.50,0.0390
3940.00,0.0390
3939.50,0.0390
3939.00,0.0390
3938.50,0.0390
3938.00,0.0390
3937.50,0.0390
3937.00,0.0390
3936.50,0.0389
3936.00,0.0389
3935.50,0.0389
3935.00,0.0389
3934.50,0.0389
3934.00,0.0389
3933.50,0.0389
3933.00,0.0389
3932.50,0.0388
3932.00,0.0388
3931.50,0.0388
3931.00,0.0388
3930.50,0.0388
3930.00,0.0388
3929.50,0.0389
3929.00,0.0389
3928.50,0.0389
3928.00,0.0389
3927.50,0.0389
3927.00,0.0389
3926.50,0.0389
3926.00,0.0388
3925.50,0.0388
3925.00,0.0388
3924.50,0.0388
3924.00,0.0388
3923.50,0.0388
3923.00,0.0388
3922.50,0.0389
3922.00,0.0389
3921.50,0.0389
3921.00,0.0389
3920.50,0.0388
3920.00,0.0388
3919.50,0.0389
3919.00,0.0389
3918.50,0.0388
3918.00,0.0388
3917.50,0.0388
3917.00,0.0389
3916.50,0.0388
3916.00,0.0388
3915.50,0.0388
3915.00,0.0389
3914.50,0.0389
3914.00,0.0390
3913.50,0.0390
3913.00,0.0390
3912.50,0.0390
3912.00,0.0390
3911.50,0.0390
3911.00,0.0390
3910.50,0.0390
3910.00,0.0390
3909.50,0.0390
3909.00,0.0390
3908.50,0.0390
3908.00,0.0390
3907.50,0.0390
3907.00,0.0389
3906.50,0.0389
3906.00,0.0388
3905.50,0.0387
3905.00,0.0386
3904.50,0.0386
3904.00,0.0388
3903.50,0.0389
3903.00,0.0388
3902.50,0.0386
3902.00,0.0387
3901.50,0.0388
3901.00,0.0389
3900.50,0.0387
3900.00,0.0385
3899.50,0.0386
3899.00,0.0388
3898.50,0.0388
3898.00,0.0388
3897.50,0.0388
3897.00,0.0390
3896.50,0.0391
3896.00,0.0391
3895.50,0.0390
3895.00,0.0390
3894.50,0.0390
3894.00,0.0390
3893.50,0.0390
3893.00,0.0389
3892.50,0.0388
3892.00,0.0387
3891.50,0.0388
3891.00,0.0389
3890.50,0.0389
3890.00,0.0390
3889.50,0.0390
3889.00,0.0390
3888.50,0.0391
3888.00,0.0391
3887.50,0.0391
3887.00,0.0389
3886.50,0.0388
3886.00,0.0387
3885.50,0.0388
3885.00,0.0388
3884.50,0.0388
3884.00,0.0388
3883.50,0.0389
3883.00,0.0390
3882.50,0.0390
3882.00,0.0389
3881.50,0.0389
3881.00,0.0389
3880.50,0.0389
3880.00,0.0389
3879.50,0.0389
3879.00,0.0389
3878.50,0.0390
3878.00,0.0391
3877.50,0.0391
3877.00,0.0392
3876.50,0.0392
3876.00,0.0391
3875.50,0.0391
3875.00,0.0390
3874.50,0.0390
3874.00,0.0390
3873.50,0.0389
3873.00,0.0389
3872.50,0.0389
3872.00,0.0389
3871.50,0.0390
3871.00,0.0390
3870.50,0.0390
3870.00,0.0390
3869.50,0.0390
3869.00,0.0390
3868.50,0.0390
3868.00,0.0390
3867.50,0.0391
3867.00,0.0391
3866.50,0.0391
3866.00,0.0390
3865.50,0.0390
3865.00,0.0391
3864.50,0.0392
3864.00,0.0391
3863.50,0.0390
3863.00,0.0390
3862.50,0.0390
3862.00,0.0391
3861.50,0.0392
3861.00,0.0393
3860.50,0.0393
3860.00,0.0393
3859.50,0.0394
3859.00,0.0394
3858.50,0.0394
3858.00,0.0394
3857.50,0.0393
3857.00,0.0393
3856.50,0.0393
3856.00,0.0392
3855.50,0.0389
3855.00,0.0388
3854.50,0.0393
3854.00,0.0399
3853.50,0.0398
3853.00,0.0394
3852.50,0.0392
3852.00,0.0393
3851.50,0.0396
3851.00,0.0397
3850.50,0.0397
3850.00,0.0396
3849.50,0.0397
3849.00,0.0398
3848.50,0.0398
3848.00,0.0398
3847.50,0.0399
3847.00,0.0399
3846.50,0.0399
3846.00,0.0399
3845.50,0.0400
3845.00,0.0400
3844.50,0.0400
3844.00,0.0400
3843.50,0.0401
3843.00,0.0402
3842.50,0.0401
3842.00,0.0401
3841.50,0.0401
3841.00,0.0402
3840.50,0.0403
3840.00,0.0402
3839.50,0.0401
3839.00,0.0400
3838.50,0.0400
3838.00,0.0401
3837.50,0.0404
3837.00,0.0405
3836.50,0.0404
3836.00,0.0402
3835.50,0.0403
3835.00,0.0405
3834.50,0.0407
3834.00,0.0407
3833.50,0.0406
3833.00,0.0406
3832.50,0.0407
3832.00,0.0408
3831.50,0.0408
3831.00,0.0408
3830.50,0.0408
3830.00,0.0408
3829.50,0.0408
3829.00,0.0409
3828.50,0.0410
3828.00,0.0410
3827.50,0.0409
3827.00,0.0409
3826.50,0.0409
3826.00,0.0410
3825.50,0.0410
3825.00,0.0409
3824.50,0.0410
3824.00,0.0410
3823.50,0.0410
3823.00,0.0410
3822.50,0.0409
3822.00,0.0410
3821.50,0.0410
3821.00,0.0409
3820.50,0.0408
3820.00,0.0407
3819.50,0.0408
3819.00,0.0409
3818.50,0.0410
3818.00,0.0411
3817.50,0.0410
3817.00,0.0409
3816.50,0.0409
3816.00,0.0411
3815.50,0.0412
3815.00,0.0412
3814.50,0.0412
3814.00,0.0411
3813.50,0.0412
3813.00,0.0413
3812.50,0.0414
3812.00,0.0414
3811.50,0.0414
3811.00,0.0415
3810.50,0.0415
3810.00,0.0415
3809.50,0.0415
3809.00,0.0415
3808.50,0.0414
3808.00,0.0414
3807.50,0.0414
3807.00,0.0416
3806.50,0.0417
3806.00,0.0417
3805.50,0.0416
3805.00,0.0416
3804.50,0.0416
3804.00,0.0417
3803.50,0.0417
3803.00,0.0417
3802.50,0.0416
3802.00,0.0415
3801.50,0.0416
3801.00,0.0417
3800.50,0.0418
3800.00,0.0418
3799.50,0.0417
3799.00,0.0418
3798.50,0.0419
3798.00,0.0420
3797.50,0.0420
3797.00,0.0420
3796.50,0.0420
3796.00,0.0421
3795.50,0.0421
3795.00,0.0421
3794.50,0.0422
3794.00,0.0423
3793.50,0.0424
3793.00,0.0424
3792.50,0.0425
3792.00,0.0425
3791.50,0.0426
3791.00,0.0426
3790.50,0.0426
3790.00,0.0427
3789.50,0.0428
3789.00,0.0428
3788.50,0.0429
3788.00,0.0430
3787.50,0.0430
3787.00,0.0431
3786.50,0.0432
3786.00,0.0432
3785.50,0.0433
3785.00,0.0433
3784.50,0.0433
3784.00,0.0434
3783.50,0.0435
3783.00,0.0436
3782.50,0.0436
3782.00,0.0437
3781.50,0.0438
3781.00,0.0438
3780.50,0.0437
3780.00,0.0437
3779.50,0.0438
3779.00,0.0438
3778.50,0.0439
3778.00,0.0440
3777.50,0.0441
3777.00,0.0442
3776.50,0.0443
3776.00,0.0444
3775.50,0.0445
3775.00,0.0445
3774.50,0.0446
3774.00,0.0446
3773.50,0.0447
3773.00,0.0447
3772.50,0.0447
3772.00,0.0448
3771.50,0.0448
3771.00,0.0448
3770.50,0.0448
3770.00,0.0449
3769.50,0.0449
3769.00,0.0449
3768.50,0.0449
3768.00,0.0450
3767.50,0.0450
3767.00,0.0451
3766.50,0.0451
3766.00,0.0451
3765.50,0.0451
3765.00,0.0451
3764.50,0.0451
3764.00,0.0451
3763.50,0.0452
3763.00,0.0453
3762.50,0.0453
3762.00,0.0453
3761.50,0.0453
3761.00,0.0453
3760.50,0.0453
3760.00,0.0453
3759.50,0.0452
3759.00,0.0452
3758.50,0.0451
3758.00,0.0451
3757.50,0.0451
3757.00,0.0452
3756.50,0.0453
3756.00,0.0452
3755.50,0.0452
3755.00,0.0452
3754.50,0.0452
3754.00,0.0452
3753.50,0.0451
3753.00,0.0449
3752.50,0.0450
3752.00,0.0451
3751.50,0.0451
3751.00,0.0449
3750.50,0.0446
3750.00,0.0445
3749.50,0.0448
3749.00,0.0450
3748.50,0.0449
3748.00,0.0447
3747.50,0.0446
3747.00,0.0446
3746.50,0.0446
3746.00,0.0444
3745.50,0.0442
3745.00,0.0443
3744.50,0.0443
3744.00,0.0442
3743.50,0.0442
3743.00,0.0442
3742.50,0.0442
3742.00,0.0442
3741.50,0.0442
3741.00,0.0442
3740.50,0.0441
3740.00,0.0440
3739.50,0.0439
3739.00,0.0439
3738.50,0.0439
3738.00,0.0438
3737.50,0.0437
3737.00,0.0436
3736.50,0.0436
3736.00,0.0436
3735.50,0.0434
3735.00,0.0433
3734.50,0.0434
3734.00,0.0436
3733.50,0.0437
3733.00,0.0438
3732.50,0.0440
3732.00,0.0443
3731.50,0.0444
3731.00,0.0444
3730.50,0.0443
3730.00,0.0444
3729.50,0.0445
3729.00,0.0446
3728.50,0.0446
3728.00,0.0446
3727.50,0.0446
3727.00,0.0447
3726.50,0.0447
3726.00,0.0448
3725.50,0.0448
3725.00,0.0449
3724.50,0.0450
3724.00,0.0451
3723.50,0.0452
3723.00,0.0452
3722.50,0.0453
3722.00,0.0454
3721.50,0.0455
3721.00,0.0456
3720.50,0.0457
3720.00,0.0458
3719.50,0.0459
3719.00,0.0459
3718.50,0.0460
3718.00,0.0461
3717.50,0.0462
3717.00,0.0463
3716.50,0.0464
3716.00,0.0465
3715.50,0.0465
3715.00,0.0466
3714.50,0.0467
3714.00,0.0467
3713.50,0.0467
3713.00,0.0468
3712.50,0.0470
3712.00,0.0471
3711.50,0.0471
3711.00,0.0471
3710.50,0.0471
3710.00,0.0472
3709.50,0.0474
3709.00,0.0476
3708.50,0.0477
3708.00,0.0478
3707.50,0.0479
3707.00,0.0480
3706.50,0.0482
3706.00,0.0483
3705.50,0.0483
3705.00,0.0483
3704.50,0.0484
3704.00,0.0485
3703.50,0.0486
3703.00,0.0486
3702.50,0.0486
3702.00,0.0486
3701.50,0.0486
3701.00,0.0486
3700.50,0.0486
3700.00,0.0486
3699.50,0.0487
3699.00,0.0487
3698.50,0.0487
3698.00,0.0486
3697.50,0.0486
3697.00,0.0485
3696.50,0.0485
3696.00,0.0484
3695.50,0.0484
3695.00,0.0483
3694.50,0.0483
3694.00,0.0482
3693.50,0.0482
3693.00,0.0481
3692.50,0.0480
3692.00,0.0479
3691.50,0.0478
3691.00,0.0476
3690.50,0.0475
3690.00,0.0473
3689.50,0.0470
3689.00,0.0470
3688.50,0.0471
3688.00,0.0472
3687.50,0.0472
3687.00,0.0471
3686.50,0.0471
3686.00,0.0471
3685.50,0.0471
3685.00,0.0471
3684.50,0.0470
3684.00,0.0470
3683.50,0.0470
3683.00,0.0469
3682.50,0.0469
3682.00,0.0469
3681.50,0.0469
3681.00,0.0468
3680.50,0.0467
3680.00,0.0467
3679.50,0.0466
3679.00,0.0466
3678.50,0.0465
3678.00,0.0465
3677.50,0.0465
3677.00,0.0464
3676.50,0.0465
3676.00,0.0465
3675.50,0.0464
3675.00,0.0462
3674.50,0.0461
3674.00,0.0463
3673.50,0.0464
3673.00,0.0466
3672.50,0.0466
3672.00,0.0466
3671.50,0.0466
3671.00,0.0467
3670.50,0.0468
3670.00,0.0468
3669.50,0.0466
3669.00,0.0466
3668.50,0.0467
3668.00,0.0469
3667.50,0.0470
3667.00,0.0470
3666.50,0.0472
3666.00,0.0473
3665.50,0.0474
3665.00,0.0474
3664.50,0.0474
3664.00,0.0475
3663.50,0.0476
3663.00,0.0476
3662.50,0.0476
3662.00,0.0477
3661.50,0.0477
3661.00,0.0477
3660.50,0.0477
3660.00,0.0478
3659.50,0.0479
3659.00,0.0480
3658.50,0.0480
3658.00,0.0481
3657.50,0.0481
3657.00,0.0482
3656.50,0.0483
3656.00,0.0484
3655.50,0.0485
3655.00,0.0486
3654.50,0.0486
3654.00,0.0487
3653.50,0.0488
3653.00,0.0489
3652.50,0.0488
3652.00,0.0487
3651.50,0.0487
3651.00,0.0487
3650.50,0.0485
3650.00,0.0484
3649.50,0.0485
3649.00,0.0488
3648.50,0.0490
3648.00,0.0490
3647.50,0.0489
3647.00,0.0489
3646.50,0.0490
3646.00,0.0491
3645.50,0.0492
3645.00,0.0493
3644.50,0.0494
3644.00,0.0495
3643.50,0.0495
3643.00,0.0495
3642.50,0.0495
3642.00,0.0494
3641.50,0.0494
3641.00,0.0494
3640.50,0.0495
3640.00,0.0495
3639.50,0.0494
3639.00,0.0494
3638.50,0.0494
3638.00,0.0493
3637.50,0.0493
3637.00,0.0492
3636.50,0.0492
3636.00,0.0492
3635.50,0.0491
3635.00,0.0490
3634.50,0.0490
3634.00,0.0489
3633.50,0.0488
3633.00,0.0488
3632.50,0.0487
3632.00,0.0487
3631.50,0.0487
3631.00,0.0486
3630.50,0.0485
3630.00,0.0485
3629.50,0.0484
3629.00,0.0482
3628.50,0.0480
3628.00,0.0480
3627.50,0.0481
3627.00,0.0482
3626.50,0.0482
3626.00,0.0482
3625.50,0.0482
3625.00,0.0482
3624.50,0.0482
3624.00,0.0482
3623.50,0.0482
3623.00,0.0481
3622.50,0.0481
3622.00,0.0480
3621.50,0.0480
3621.00,0.0480
3620.50,0.0479
3620.00,0.0479
3619.50,0.0480
3619.00,0.0480
3618.50,0.0479
3618.00,0.0478
3617.50,0.0477
3617.00,0.0478
3616.50,0.0479
3616.00,0.0479
3615.50,0.0479
3615.00,0.0479
3614.50,0.0479
3614.00,0.0478
3613.50,0.0478
3613.00,0.0477
3612.50,0.0478
3612.00,0.0478
3611.50,0.0479
3611.00,0.0479
3610.50,0.0479
3610.00,0.0479
3609.50,0.0480
3609.00,0.0480
3608.50,0.0480
3608.00,0.0479
3607.50,0.0478
3607.00,0.0478
3606.50,0.0479
3606.00,0.0479
3605.50,0.0480
3605.00,0.0481
3604.50,0.0482
3604.00,0.0482
3603.50,0.0482
3603.00,0.0482
3602.50,0.0482
3602.00,0.0482
3601.50,0.0482
3601.00,0.0482
3600.50,0.0481
3600.00,0.0481
3599.50,0.0481
3599.00,0.0482
3598.50,0.0483
3598.00,0.0483
3597.50,0.0484
3597.00,0.0484
3596.50,0.0484
3596.00,0.0483
3595.50,0.0483
3595.00,0.0483
3594.50,0.0483
3594.00,0.0483
3593.50,0.0483
3593.00,0.0483
3592.50,0.0483
3592.00,0.0484
3591.50,0.0484
3591.00,0.0485
3590.50,0.0485
3590.00,0.0484
3589.50,0.0484
3589.00,0.0483
3588.50,0.0483
3588.00,0.0482
3587.50,0.0480
3587.00,0.0478
3586.50,0.0478
3586.00,0.0478
3585.50,0.0479
3585.00,0.0479
3584.50,0.0481
3584.00,0.0482
3583.50,0.0482
3583.00,0.0481
3582.50,0.0481
3582.00,0.0481
3581.50,0.0481
3581.00,0.0481
3580.50,0.0481
3580.00,0.0480
3579.50,0.0480
3579.00,0.0480
3578.50,0.0480
3578.00,0.0479
3577.50,0.0479
3577.00,0.0479
3576.50,0.0479
3576.00,0.0478
3575.50,0.0478
3575.00,0.0478
3574.50,0.0478
3574.00,0.0477
3573.50,0.0477
3573.00,0.0477
3572.50,0.0477
3572.00,0.0476
3571.50,0.0476
3571.00,0.0475
3570.50,0.0475
3570.00,0.0474
3569.50,0.0473
3569.00,0.0473
3568.50,0.0472
3568.00,0.0472
3567.50,0.0471
3567.00,0.0469
3566.50,0.0469
3566.00,0.0468
3565.50,0.0469
3565.00,0.0469
3564.50,0.0470
3564.00,0.0471
3563.50,0.0471
3563.00,0.0471
3562.50,0.0470
3562.00,0.0470
3561.50,0.0469
3561.00,0.0469
3560.50,0.0469
3560.00,0.0469
3559.50,0.0469
3559.00,0.0469
3558.50,0.0469
3558.00,0.0469
3557.50,0.0470
3557.00,0.0470
3556.50,0.0470
3556.00,0.0469
3555.50,0.0469
3555.00,0.0469
3554.50,0.0469
3554.00,0.0469
3553.50,0.0468
3553.00,0.0468
3552.50,0.0467
3552.00,0.0466
3551.50,0.0466
3551.00,0.0466
3550.50,0.0467
3550.00,0.0467
3549.50,0.0468
3549.00,0.0468
3548.50,0.0467
3548.00,0.0466
3547.50,0.0466
3547.00,0.0465
3546.50,0.0464
3546.00,0.0463
3545.50,0.0463
3545.00,0.0463
3544.50,0.0463
3544.00,0.0464
3543.50,0.0464
3543.00,0.0464
3542.50,0.0465
3542.00,0.0465
3541.50,0.0466
3541.00,0.0466
3540.50,0.0467
3540.00,0.0467
3539.50,0.0467
3539.00,0.0467
3538.50,0.0466
3538.00,0.0466
3537.50,0.0465
3537.00,0.0465
3536.50,0.0464
3536.00,0.0464
3535.50,0.0465
3535.00,0.0465
3534.50,0.0466
3534.00,0.0466
3533.50,0.0466
3533.00,0.0466
3532.50,0.0466
3532.00,0.0466
3531.50,0.0466
3531.00,0.0466
3530.50,0.0466
3530.00,0.0465
3529.50,0.0465
3529.00,0.0465
3528.50,0.0465
3528.00,0.0465
3527.50,0.0465
3527.00,0.0464
3526.50,0.0464
3526.00,0.0464
3525.50,0.0464
3525.00,0.0463
3524.50,0.0463
3524.00,0.0462
3523.50,0.0462
3523.00,0.0462
3522.50,0.0463
3522.00,0.0463
3521.50,0.0463
3521.00,0.0464
3520.50,0.0464
3520.00,0.0464
3519.50,0.0464
3519.00,0.0464
3518.50,0.0463
3518.00,0.0463
3517.50,0.0463
3517.00,0.0463
3516.50,0.0463
3516.00,0.0463
3515.50,0.0463
3515.00,0.0462
3514.50,0.0462
3514.00,0.0461
3513.50,0.0461
3513.00,0.0461
3512.50,0.0461
3512.00,0.0462
3511.50,0.0462
3511.00,0.0462
3510.50,0.0461
3510.00,0.0461
3509.50,0.0461
3509.00,0.0461
3508.50,0.0460
3508.00,0.0460
3507.50,0.0461
3507.00,0.0461
3506.50,0.0460
3506.00,0.0460
3505.50,0.0460
3505.00,0.0460
3504.50,0.0459
3504.00,0.0458
3503.50,0.0457
3503.00,0.0457
3502.50,0.0456
3502.00,0.0457
3501.50,0.0457
3501.00,0.0458
3500.50,0.0458
3500.00,0.0458
3499.50,0.0458
3499.00,0.0457
3498.50,0.0457
3498.00,0.0457
3497.50,0.0456
3497.00,0.0456
3496.50,0.0456
3496.00,0.0456
3495.50,0.0456
3495.00,0.0456
3494.50,0.0456
3494.00,0.0456
3493.50,0.0456
3493.00,0.0456
3492.50,0.0456
3492.00,0.0456
3491.50,0.0456
3491.00,0.0456
3490.50,0.0455
3490.00,0.0455
3489.50,0.0455
3489.00,0.0455
3488.50,0.0454
3488.00,0.0454
3487.50,0.0453
3487.00,0.0453
3486.50,0.0453
3486.00,0.0453
3485.50,0.0454
3485.00,0.0454
3484.50,0.0454
3484.00,0.0454
3483.50,0.0454
3483.00,0.0453
3482.50,0.0453
3482.00,0.0452
3481.50,0.0452
3481.00,0.0451
3480.50,0.0451
3480.00,0.0450
3479.50,0.0451
3479.00,0.0451
3478.50,0.0451
3478.00,0.0452
3477.50,0.0452
3477.00,0.0452
3476.50,0.0452
3476.00,0.0451
3475.50,0.0451
3475.00,0.0451
3474.50,0.0451
3474.00,0.0451
3473.50,0.0451
3473.00,0.0450
3472.50,0.0450
3472.00,0.0450
3471.50,0.0449
3471.00,0.0449
3470.50,0.0448
3470.00,0.0447
3469.50,0.0447
3469.00,0.0447
3468.50,0.0446
3468.00,0.0446
3467.50,0.0446
3467.00,0.0446
3466.50,0.0446
3466.00,0.0447
3465.50,0.0447
3465.00,0.0447
3464.50,0.0447
3464.00,0.0447
3463.50,0.0447
3463.00,0.0447
3462.50,0.0446
3462.00,0.0446
3461.50,0.0445
3461.00,0.0445
3460.50,0.0445
3460.00,0.0445
3459.50,0.0445
3459.00,0.0445
3458.50,0.0445
3458.00,0.0445
3457.50,0.0445
3457.00,0.0445
3456.50,0.0445
3456.00,0.0445
3455.50,0.0445
3455.00,0.0445
3454.50,0.0444
3454.00,0.0444
3453.50,0.0444
3453.00,0.0444
3452.50,0.0444
3452.00,0.0444
3451.50,0.0443
3451.00,0.0443
3450.50,0.0443
3450.00,0.0443
3449.50,0.0443
3449.00,0.0442
3448.50,0.0442
3448.00,0.0441
3447.50,0.0441
3447.00,0.0440
3446.50,0.0440
3446.00,0.0440
3445.50,0.0441
3445.00,0.0441
3444.50,0.0441
3444.00,0.0441
3443.50,0.0440
3443.00,0.0440
3442.50,0.0440
3442.00,0.0440
3441.50,0.0439
3441.00,0.0439
3440.50,0.0439
3440.00,0.0439
3439.50,0.0439
3439.00,0.0438
3438.50,0.0437
3438.00,0.0437
3437.50,0.0436
3437.00,0.0436
3436.50,0.0436
3436.00,0.0436
3435.50,0.0435
3435.00,0.0435
3434.50,0.0436
3434.00,0.0436
3433.50,0.0436
3433.00,0.0436
3432.50,0.0436
3432.00,0.0436
3431.50,0.0435
3431.00,0.0435
3430.50,0.0434
3430.00,0.0434
3429.50,0.0434
3429.00,0.0435
3428.50,0.0435
3428.00,0.0435
3427.50,0.0435
3427.00,0.0435
3426.50,0.0435
3426.00,0.0435
3425.50,0.0435
3425.00,0.0435
3424.50,0.0434
3424.00,0.0434
3423.50,0.0434
3423.00,0.0434
3422.50,0.0434
3422.00,0.0434
3421.50,0.0433
3421.00,0.0433
3420.50,0.0433
3420.00,0.0433
3419.50,0.0433
3419.00,0.0433
3418.50,0.0433
3418.00,0.0433
3417.50,0.0433
3417.00,0.0433
3416.50,0.0433
3416.00,0.0433
3415.50,0.0432
3415.00,0.0432
3414.50,0.0432
3414.00,0.0431
3413.50,0.0431
3413.00,0.0431
3412.50,0.0430
3412.00,0.0431
3411.50,0.0431
3411.00,0.0431
3410.50,0.0430
3410.00,0.0430
3409.50,0.0430
3409.00,0.0430
3408.50,0.0430
3408.00,0.0430
3407.50,0.0430
3407.00,0.0430
3406.50,0.0430
3406.00,0.0430
3405.50,0.0430
3405.00,0.0430
3404.50,0.0429
3404.00,0.0429
3403.50,0.0429
3403.00,0.0428
3402.50,0.0427
3402.00,0.0427
3401.50,0.0427
3401.00,0.0427
3400.50,0.0427
3400.00,0.0427
3399.50,0.0427
3399.00,0.0427
3398.50,0.0427
3398.00,0.0428
3397.50,0.0428
3397.00,0.0428
3396.50,0.0428
3396.00,0.0427
3395.50,0.0427
3395.00,0.0427
3394.50,0.0427
3394.00,0.0427
3393.50,0.0426
3393.00,0.0426
3392.50,0.0425
3392.00,0.0425
3391.50,0.0425
3391.00,0.0425
3390.50,0.0426
3390.00,0.0427
3389.50,0.0427
3389.00,0.0427
3388.50,0.0427
3388.00,0.0427
3387.50,0.0427
3387.00,0.0427
3386.50,0.0427
3386.00,0.0427
3385.50,0.0427
3385.00,0.0427
3384.50,0.0427
3384.00,0.0427
3383.50,0.0427
3383.00,0.0426
3382.50,0.0426
3382.00,0.0426
3381.50,0.0426
3381.00,0.0426
3380.50,0.0425
3380.00,0.0425
3379.50,0.0425
3379.00,0.0426
3378.50,0.0426
3378.00,0.0425
3377.50,0.0425
3377.00,0.0425
3376.50,0.0425
3376.00,0.0425
3375.50,0.0425
3375.00,0.0425
3374.50,0.0425
3374.00,0.0425
3373.50,0.0425
3373.00,0.0425
3372.50,0.0425
3372.00,0.0424
3371.50,0.0424
3371.00,0.0423
3370.50,0.0423
3370.00,0.0423
3369.50,0.0423
3369.00,0.0423
3368.50,0.0423
3368.00,0.0423
3367.50,0.0423
3367.00,0.0423
3366.50,0.0423
3366.00,0.0424
3365.50,0.0424
3365.00,0.0424
3364.50,0.0425
3364.00,0.0425
3363.50,0.0425
3363.00,0.0425
3362.50,0.0425
3362.00,0.0425
3361.50,0.0424
3361.00,0.0424
3360.50,0.0424
3360.00,0.0424
3359.50,0.0425
3359.00,0.0425
3358.50,0.0425
3358.00,0.0425
3357.50,0.0425
3357.00,0.0425
3356.50,0.0425
3356.00,0.0425
3355.50,0.0425
3355.00,0.0425
3354.50,0.0425
3354.00,0.0425
3353.50,0.0425
3353.00,0.0424
3352.50,0.0424
3352.00,0.0423
3351.50,0.0423
3351.00,0.0423
3350.50,0.0423
3350.00,0.0423
3349.50,0.0423
3349.00,0.0424
3348.50,0.0424
3348.00,0.0424
3347.50,0.0424
3347.00,0.0424
3346.50,0.0424
3346.00,0.0424
3345.50,0.0424
3345.00,0.0424
3344.50,0.0423
3344.00,0.0423
3343.50,0.0423
3343.00,0.0423
3342.50,0.0423
3342.00,0.0423
3341.50,0.0424
3341.00,0.0424
3340.50,0.0423
3340.00,0.0423
3339.50,0.0422
3339.00,0.0422
3338.50,0.0422
3338.00,0.0422
3337.50,0.0422
3337.00,0.0422
3336.50,0.0423
3336.00,0.0423
3335.50,0.0423
3335.00,0.0423
3334.50,0.0424
3334.00,0.0424
3333.50,0.0424
3333.00,0.0423
3332.50,0.0423
3332.00,0.0423
3331.50,0.0423
3331.00,0.0423
3330.50,0.0423
3330.00,0.0423
3329.50,0.0423
3329.00,0.0423
3328.50,0.0423
3328.00,0.0423
3327.50,0.0422
3327.00,0.0422
3326.50,0.0421
3326.00,0.0421
3325.50,0.0421
3325.00,0.0421
3324.50,0.0422
3324.00,0.0422
3323.50,0.0422
3323.00,0.0422
3322.50,0.0422
3322.00,0.0422
3321.50,0.0422
3321.00,0.0422
3320.50,0.0422
3320.00,0.0422
3319.50,0.0422
3319.00,0.0422
3318.50,0.0422
3318.00,0.0422
3317.50,0.0422
3317.00,0.0422
3316.50,0.0422
3316.00,0.0421
3315.50,0.0421
3315.00,0.0421
3314.50,0.0421
3314.00,0.0421
3313.50,0.0421
3313.00,0.0421
3312.50,0.0421
3312.00,0.0420
3311.50,0.0420
3311.00,0.0420
3310.50,0.0420
3310.00,0.0419
3309.50,0.0419
3309.00,0.0419
3308.50,0.0419
3308.00,0.0418
3307.50,0.0418
3307.00,0.0418
3306.50,0.0418
3306.00,0.0418
3305.50,0.0418
3305.00,0.0418
3304.50,0.0419
3304.00,0.0419
3303.50,0.0420
3303.00,0.0420
3302.50,0.0420
3302.00,0.0420
3301.50,0.0421
3301.00,0.0421
3300.50,0.0421
3300.00,0.0420
3299.50,0.0420
3299.00,0.0420
3298.50,0.0420
3298.00,0.0420
3297.50,0.0419
3297.00,0.0419
3296.50,0.0419
3296.00,0.0419
3295.50,0.0418
3295.00,0.0418
3294.50,0.0419
3294.00,0.0419
3293.50,0.0418
3293.00,0.0418
3292.50,0.0418
3292.00,0.0418
3291.50,0.0418
3291.00,0.0419
3290.50,0.0419
3290.00,0.0419
3289.50,0.0420
3289.00,0.0420
3288.50,0.0420
3288.00,0.0420
3287.50,0.0420
3287.00,0.0420
3286.50,0.0420
3286.00,0.0420
3285.50,0.0420
3285.00,0.0420
3284.50,0.0420
3284.00,0.0420
3283.50,0.0420
3283.00,0.0420
3282.50,0.0420
3282.00,0.0420
3281.50,0.0420
3281.00,0.0420
3280.50,0.0420
3280.00,0.0420
3279.50,0.0420
3279.00,0.0420
3278.50,0.0420
3278.00,0.0420
3277.50,0.0420
3277.00,0.0420
3276.50,0.0419
3276.00,0.0419
3275.50,0.0419
3275.00,0.0419
3274.50,0.0419
3274.00,0.0419
3273.50,0.0419
3273.00,0.0419
3272.50,0.0418
3272.00,0.0418
3271.50,0.0418
3271.00,0.0418
3270.50,0.0418
3270.00,0.0418
3269.50,0.0418
3269.00,0.0419
3268.50,0.0419
3268.00,0.0420
3267.50,0.0420
3267.00,0.0420
3266.50,0.0420
3266.00,0.0420
3265.50,0.0420
3265.00,0.0420
3264.50,0.0420
3264.00,0.0420
3263.50,0.0420
3263.00,0.0420
3262.50,0.0420
3262.00,0.0420
3261.50,0.0420
3261.00,0.0420
3260.50,0.0420
3260.00,0.0420
3259.50,0.0420
3259.00,0.0420
3258.50,0.0420
3258.00,0.0420
3257.50,0.0420
3257.00,0.0419
3256.50,0.0419
3256.00,0.0419
3255.50,0.0419
3255.00,0.0419
3254.50,0.0420
3254.00,0.0420
3253.50,0.0420
3253.00,0.0420
3252.50,0.0420
3252.00,0.0420
3251.50,0.0421
3251.00,0.0421
3250.50,0.0421
3250.00,0.0421
3249.50,0.0420
3249.00,0.0420
3248.50,0.0420
3248.00,0.0419
3247.50,0.0419
3247.00,0.0419
3246.50,0.0419
3246.00,0.0420
3245.50,0.0420
3245.00,0.0420
3244.50,0.0421
3244.00,0.0421
3243.50,0.0421
3243.00,0.0421
3242.50,0.0421
3242.00,0.0421
3241.50,0.0421
3241.00,0.0421
3240.50,0.0421
3240.00,0.0421
3239.50,0.0421
3239.00,0.0422
3238.50,0.0422
3238.00,0.0421
3237.50,0.0421
3237.00,0.0421
3236.50,0.0421
3236.00,0.0421
3235.50,0.0420
3235.00,0.0420
3234.50,0.0420
3234.00,0.0420
3233.50,0.0420
3233.00,0.0420
3232.50,0.0420
3232.00,0.0421
3231.50,0.0421
3231.00,0.0422
3230.50,0.0422
3230.00,0.0422
3229.50,0.0422
3229.00,0.0422
3228.50,0.0422
3228.00,0.0422
3227.50,0.0423
3227.00,0.0423
3226.50,0.0423
3226.00,0.0423
3225.50,0.0423
3225.00,0.0423
3224.50,0.0423
3224.00,0.0423
3223.50,0.0423
3223.00,0.0423
3222.50,0.0423
3222.00,0.0423
3221.50,0.0423
3221.00,0.0423
3220.50,0.0423
3220.00,0.0423
3219.50,0.0423
3219.00,0.0423
3218.50,0.0423
3218.00,0.0424
3217.50,0.0424
3217.00,0.0424
3216.50,0.0424
3216.00,0.0424
3215.50,0.0424
3215.00,0.0424
3214.50,0.0424
3214.00,0.0424
3213.50,0.0424
3213.00,0.0424
3212.50,0.0424
3212.00,0.0425
3211.50,0.0425
3211.00,0.0425
3210.50,0.0425
3210.00,0.0425
3209.50,0.0425
3209.00,0.0425
3208.50,0.0425
3208.00,0.0425
3207.50,0.0425
3207.00,0.0425
3206.50,0.0425
3206.00,0.0425
3205.50,0.0426
3205.00,0.0426
3204.50,0.0426
3204.00,0.0426
3203.50,0.0426
3203.00,0.0426
3202.50,0.0426
3202.00,0.0426
3201.50,0.0427
3201.00,0.0427
3200.50,0.0427
3200.00,0.0427
3199.50,0.0427
3199.00,0.0427
3198.50,0.0427
3198.00,0.0427
3197.50,0.0428
3197.00,0.0428
3196.50,0.0428
3196.00,0.0428
3195.50,0.0428
3195.00,0.0428
3194.50,0.0429
3194.00,0.0429
3193.50,0.0429
3193.00,0.0429
3192.50,0.0429
3192.00,0.0430
3191.50,0.0430
3191.00,0.0430
3190.50,0.0430
3190.00,0.0430
3189.50,0.0430
3189.00,0.0431
3188.50,0.0431
3188.00,0.0431
3187.50,0.0432
3187.00,0.0432
3186.50,0.0432
3186.00,0.0432
3185.50,0.0432
3185.00,0.0432
3184.50,0.0432
3184.00,0.0432
3183.50,0.0432
3183.00,0.0432
3182.50,0.0432
3182.00,0.0432
3181.50,0.0432
3181.00,0.0432
3180.50,0.0432
3180.00,0.0432
3179.50,0.0432
3179.00,0.0432
3178.50,0.0432
3178.00,0.0432
3177.50,0.0432
3177.00,0.0432
3176.50,0.0432
3176.00,0.0432
3175.50,0.0432
3175.00,0.0432
3174.50,0.0432
3174.00,0.0432
3173.50,0.0432
3173.00,0.0433
3172.50,0.0433
3172.00,0.0433
3171.50,0.0433
3171.00,0.0433
3170.50,0.0433
3170.00,0.0434
3169.50,0.0434
3169.00,0.0434
3168.50,0.0434
3168.00,0.0434
3167.50,0.0434
3167.00,0.0434
3166.50,0.0435
3166.00,0.0435
3165.50,0.0435
3165.00,0.0435
3164.50,0.0436
3164.00,0.0436
3163.50,0.0436
3163.00,0.0436
3162.50,0.0436
3162.00,0.0437
3161.50,0.0437
3161.00,0.0437
3160.50,0.0437
3160.00,0.0438
3159.50,0.0438
3159.00,0.0438
3158.50,0.0438
3158.00,0.0439
3157.50,0.0439
3157.00,0.0439
3156.50,0.0439
3156.00,0.0439
3155.50,0.0439
3155.00,0.0439
3154.50,0.0439
3154.00,0.0439
3153.50,0.0439
3153.00,0.0439
3152.50,0.0439
3152.00,0.0440
3151.50,0.0441
3151.00,0.0442
3150.50,0.0442
3150.00,0.0443
3149.50,0.0443
3149.00,0.0444
3148.50,0.0444
3148.00,0.0445
3147.50,0.0445
3147.00,0.0445
3146.50,0.0446
3146.00,0.0446
3145.50,0.0446
3145.00,0.0447
3144.50,0.0447
3144.00,0.0448
3143.50,0.0448
3143.00,0.0449
3142.50,0.0449
3142.00,0.0449
3141.50,0.0449
3141.00,0.0449
3140.50,0.0450
3140.00,0.0450
3139.50,0.0450
3139.00,0.0451
3138.50,0.0451
3138.00,0.0452
3137.50,0.0453
3137.00,0.0454
3136.50,0.0455
3136.00,0.0456
3135.50,0.0457
3135.00,0.0457
3134.50,0.0458
3134.00,0.0458
3133.50,0.0459
3133.00,0.0460
3132.50,0.0460
3132.00,0.0461
3131.50,0.0461
3131.00,0.0462
3130.50,0.0462
3130.00,0.0462
3129.50,0.0463
3129.00,0.0464
3128.50,0.0465
3128.00,0.0466
3127.50,0.0466
3127.00,0.0467
3126.50,0.0468
3126.00,0.0468
3125.50,0.0469
3125.00,0.0470
3124.50,0.0470
3124.00,0.0471
3123.50,0.0471
3123.00,0.0471
3122.50,0.0472
3122.00,0.0471
3121.50,0.0471
3121.00,0.0472
3120.50,0.0472
3120.00,0.0472
3119.50,0.0473
3119.00,0.0474
3118.50,0.0474
3118.00,0.0474
3117.50,0.0475
3117.00,0.0475
3116.50,0.0475
3116.00,0.0476
3115.50,0.0476
3115.00,0.0477
3114.50,0.0478
3114.00,0.0479
3113.50,0.0480
3113.00,0.0480
3112.50,0.0481
3112.00,0.0481
3111.50,0.0481
3111.00,0.0481
3110.50,0.0481
3110.00,0.0481
3109.50,0.0481
3109.00,0.0481
3108.50,0.0481
3108.00,0.0481
3107.50,0.0482
3107.00,0.0483
3106.50,0.0483
3106.00,0.0483
3105.50,0.0484
3105.00,0.0484
3104.50,0.0484
3104.00,0.0484
3103.50,0.0484
3103.00,0.0484
3102.50,0.0484
3102.00,0.0484
3101.50,0.0483
3101.00,0.0483
3100.50,0.0483
3100.00,0.0483
3099.50,0.0483
3099.00,0.0484
3098.50,0.0484
3098.00,0.0484
3097.50,0.0485
3097.00,0.0485
3096.50,0.0485
3096.00,0.0485
3095.50,0.0485
3095.00,0.0485
3094.50,0.0485
3094.00,0.0485
3093.50,0.0485
3093.00,0.0485
3092.50,0.0484
3092.00,0.0484
3091.50,0.0484
3091.00,0.0483
3090.50,0.0483
3090.00,0.0484
3089.50,0.0484
3089.00,0.0484
3088.50,0.0485
3088.00,0.0485
3087.50,0.0485
3087.00,0.0485
3086.50,0.0485
3086.00,0.0485
3085.50,0.0485
3085.00,0.0485
3084.50,0.0485
3084.00,0.0485
3083.50,0.0486
3083.00,0.0486
3082.50,0.0487
3082.00,0.0487
3081.50,0.0487
3081.00,0.0487
3080.50,0.0487
3080.00,0.0487
3079.50,0.0487
3079.00,0.0488
3078.50,0.0488
3078.00,0.0489
3077.50,0.0489
3077.00,0.0490
3076.50,0.0491
3076.00,0.0492
3075.50,0.0493
3075.00,0.0493
3074.50,0.0494
3074.00,0.0495
3073.50,0.0495
3073.00,0.0496
3072.50,0.0496
3072.00,0.0497
3071.50,0.0497
3071.00,0.0498
3070.50,0.0498
3070.00,0.0499
3069.50,0.0499
3069.00,0.0500
3068.50,0.0500
3068.00,0.0500
3067.50,0.0501
3067.00,0.0502
3066.50,0.0503
3066.00,0.0504
3065.50,0.0506
3065.00,0.0507
3064.50,0.0508
3064.00,0.0509
3063.50,0.0510
3063.00,0.0512
3062.50,0.0514
3062.00,0.0516
3061.50,0.0517
3061.00,0.0519
3060.50,0.0521
3060.00,0.0522
3059.50,0.0524
3059.00,0.0526
3058.50,0.0527
3058.00,0.0529
3057.50,0.0530
3057.00,0.0532
3056.50,0.0534
3056.00,0.0536
3055.50,0.0537
3055.00,0.0538
3054.50,0.0540
3054.00,0.0541
3053.50,0.0542
3053.00,0.0542
3052.50,0.0542
3052.00,0.0541
3051.50,0.0540
3051.00,0.0539
3050.50,0.0538
3050.00,0.0537
3049.50,0.0535
3049.00,0.0534
3048.50,0.0532
3048.00,0.0530
3047.50,0.0527
3047.00,0.0525
3046.50,0.0523
3046.00,0.0521
3045.50,0.0519
3045.00,0.0518
3044.50,0.0516
3044.00,0.0515
3043.50,0.0514
3043.00,0.0513
3042.50,0.0512
3042.00,0.0512
3041.50,0.0511
3041.00,0.0511
3040.50,0.0510
3040.00,0.0510
3039.50,0.0510
3039.00,0.0510
3038.50,0.0510
3038.00,0.0510
3037.50,0.0510
3037.00,0.0510
3036.50,0.0509
3036.00,0.0508
3035.50,0.0508
3035.00,0.0507
3034.50,0.0507
3034.00,0.0507
3033.50,0.0508
3033.00,0.0508
3032.50,0.0509
3032.00,0.0509
3031.50,0.0509
3031.00,0.0510
3030.50,0.0510
3030.00,0.0510
3029.50,0.0511
3029.00,0.0512
3028.50,0.0513
3028.00,0.0513
3027.50,0.0514
3027.00,0.0514
3026.50,0.0515
3026.00,0.0515
3025.50,0.0515
3025.00,0.0516
3024.50,0.0517
3024.00,0.0519
3023.50,0.0520
3023.00,0.0522
3022.50,0.0523
3022.00,0.0524
3021.50,0.0526
3021.00,0.0527
3020.50,0.0528
3020.00,0.0529
3019.50,0.0531
3019.00,0.0532
3018.50,0.0534
3018.00,0.0535
3017.50,0.0536
3017.00,0.0537
3016.50,0.0539
3016.00,0.0540
3015.50,0.0541
3015.00,0.0542
3014.50,0.0543
3014.00,0.0544
3013.50,0.0545
3013.00,0.0546
3012.50,0.0547
3012.00,0.0548
3011.50,0.0550
3011.00,0.0551
3010.50,0.0553
3010.00,0.0555
3009.50,0.0556
3009.00,0.0558
3008.50,0.0560
3008.00,0.0562
3007.50,0.0564
3007.00,0.0566
3006.50,0.0568
3006.00,0.0571
3005.50,0.0573
3005.00,0.0575
3004.50,0.0578
3004.00,0.0580
3003.50,0.0583
3003.00,0.0587
3002.50,0.0590
3002.00,0.0594
3001.50,0.0598
3001.00,0.0602
3000.50,0.0606
3000.00,0.0610
2999.50,0.0614
2999.00,0.0619
2998.50,0.0624
2998.00,0.0629
2997.50,0.0634
2997.00,0.0640
2996.50,0.0647
2996.00,0.0654
2995.50,0.0661
2995.00,0.0668
2994.50,0.0675
2994.00,0.0683
2993.50,0.0691
2993.00,0.0700
2992.50,0.0710
2992.00,0.0720
2991.50,0.0731
2991.00,0.0742
2990.50,0.0755
2990.00,0.0767
2989.50,0.0781
2989.00,0.0795
2988.50,0.0810
2988.00,0.0826
2987.50,0.0843
2987.00,0.0862
2986.50,0.0881
2986.00,0.0901
2985.50,0.0923
2985.00,0.0947
2984.50,0.0972
2984.00,0.0998
2983.50,0.1026
2983.00,0.1057
2982.50,0.1089
2982.00,0.1123
2981.50,0.1161
2981.00,0.1201
2980.50,0.1244
2980.00,0.1290
2979.50,0.1340
2979.00,0.1394
2978.50,0.1452
2978.00,0.1514
2977.50,0.1581
2977.00,0.1652
2976.50,0.1729
2976.00,0.1811
2975.50,0.1899
2975.00,0.1993
2974.50,0.2094
2974.00,0.2202
2973.50,0.2316
2973.00,0.2438
2972.50,0.2566
2972.00,0.2702
2971.50,0.2844
2971.00,0.2991
2970.50,0.3145
2970.00,0.3304
2969.50,0.3466
2969.00,0.3631
2968.50,0.3797
2968.00,0.3962
2967.50,0.4124
2967.00,0.4279
2966.50,0.4426
2966.00,0.4563
2965.50,0.4684
2965.00,0.4786
2964.50,0.4869
2964.00,0.4928
2963.50,0.4961
2963.00,0.4967
2962.50,0.4948
2962.00,0.4902
2961.50,0.4830
2961.00,0.4733
2960.50,0.4616
2960.00,0.4479
2959.50,0.4328
2959.00,0.4165
2958.50,0.3994
2958.00,0.3820
2957.50,0.3644
2957.00,0.3469
2956.50,0.3298
2956.00,0.3132
2955.50,0.2972
2955.00,0.2820
2954.50,0.2675
2954.00,0.2539
2953.50,0.2412
2953.00,0.2293
2952.50,0.2184
2952.00,0.2083
2951.50,0.1989
2951.00,0.1903
2950.50,0.1822
2950.00,0.1747
2949.50,0.1678
2949.00,0.1612
2948.50,0.1552
2948.00,0.1495
2947.50,0.1442
2947.00,0.1394
2946.50,0.1349
2946.00,0.1307
2945.50,0.1267
2945.00,0.1230
2944.50,0.1196
2944.00,0.1164
2943.50,0.1135
2943.00,0.1108
2942.50,0.1083
2942.00,0.1060
2941.50,0.1038
2941.00,0.1017
2940.50,0.0997
2940.00,0.0979
2939.50,0.0962
2939.00,0.0945
2938.50,0.0930
2938.00,0.0916
2937.50,0.0902
2937.00,0.0889
2936.50,0.0877
2936.00,0.0866
2935.50,0.0855
2935.00,0.0845
2934.50,0.0836
2934.00,0.0827
2933.50,0.0818
2933.00,0.0811
2932.50,0.0803
2932.00,0.0796
2931.50,0.0789
2931.00,0.0783
2930.50,0.0777
2930.00,0.0771
2929.50,0.0767
2929.00,0.0763
2928.50,0.0760
2928.00,0.0757
2927.50,0.0754
2927.00,0.0751
2926.50,0.0748
2926.00,0.0746
2925.50,0.0745
2925.00,0.0743
2924.50,0.0742
2924.00,0.0742
2923.50,0.0742
2923.00,0.0742
2922.50,0.0742
2922.00,0.0743
2921.50,0.0745
2921.00,0.0747
2920.50,0.0749
2920.00,0.0752
2919.50,0.0755
2919.00,0.0759
2918.50,0.0763
2918.00,0.0768
2917.50,0.0774
2917.00,0.0781
2916.50,0.0789
2916.00,0.0797
2915.50,0.0806
2915.00,0.0816
2914.50,0.0826
2914.00,0.0838
2913.50,0.0851
2913.00,0.0865
2912.50,0.0880
2912.00,0.0895
2911.50,0.0911
2911.00,0.0928
2910.50,0.0945
2910.00,0.0962
2909.50,0.0980
2909.00,0.0996
2908.50,0.1012
2908.00,0.1027
2907.50,0.1041
2907.00,0.1052
2906.50,0.1062
2906.00,0.1070
2905.50,0.1075
2905.00,0.1077
2904.50,0.1077
2904.00,0.1074
2903.50,0.1069
2903.00,0.1062
2902.50,0.1053
2902.00,0.1041
2901.50,0.1028
2901.00,0.1013
2900.50,0.0997
2900.00,0.0981
2899.50,0.0964
2899.00,0.0947
2898.50,0.0929
2898.00,0.0912
2897.50,0.0894
2897.00,0.0877
2896.50,0.0860
2896.00,0.0844
2895.50,0.0829
2895.00,0.0815
2894.50,0.0801
2894.00,0.0788
2893.50,0.0775
2893.00,0.0763
2892.50,0.0752
2892.00,0.0741
2891.50,0.0731
2891.00,0.0721
2890.50,0.0712
2890.00,0.0704
2889.50,0.0696
2889.00,0.0688
2888.50,0.0680
2888.00,0.0674
2887.50,0.0667
2887.00,0.0661
2886.50,0.0655
2886.00,0.0649
2885.50,0.0644
2885.00,0.0639
2884.50,0.0634
2884.00,0.0629
2883.50,0.0625
2883.00,0.0621
2882.50,0.0617
2882.00,0.0613
2881.50,0.0609
2881.00,0.0606
2880.50,0.0602
2880.00,0.0599
2879.50,0.0596
2879.00,0.0593
2878.50,0.0590
2878.00,0.0587
2877.50,0.0584
2877.00,0.0582
2876.50,0.0579
2876.00,0.0576
2875.50,0.0573
2875.00,0.0570
2874.50,0.0568
2874.00,0.0565
2873.50,0.0563
2873.00,0.0561
2872.50,0.0559
2872.00,0.0557
2871.50,0.0555
2871.00,0.0554
2870.50,0.0552
2870.00,0.0550
2869.50,0.0549
2869.00,0.0547
2868.50,0.0545
2868.00,0.0544
2867.50,0.0542
2867.00,0.0540
2866.50,0.0539
2866.00,0.0537
2865.50,0.0536
2865.00,0.0535
2864.50,0.0534
2864.00,0.0533
2863.50,0.0532
2863.00,0.0531
2862.50,0.0530
2862.00,0.0529
2861.50,0.0528
2861.00,0.0526
2860.50,0.0525
2860.00,0.0525
2859.50,0.0524
2859.00,0.0524
2858.50,0.0524
2858.00,0.0524
2857.50,0.0523
2857.00,0.0523
2856.50,0.0523
2856.00,0.0522
2855.50,0.0522
2855.00,0.0522
2854.50,0.0521
2854.00,0.0521
2853.50,0.0521
2853.00,0.0520
2852.50,0.0520
2852.00,0.0520
2851.50,0.0519
2851.00,0.0519
2850.50,0.0519
2850.00,0.0518
2849.50,0.0518
2849.00,0.0517
2848.50,0.0516
2848.00,0.0515
2847.50,0.0515
2847.00,0.0515
2846.50,0.0514
2846.00,0.0514
2845.50,0.0514
2845.00,0.0513
2844.50,0.0513
2844.00,0.0512
2843.50,0.0511
2843.00,0.0511
2842.50,0.0510
2842.00,0.0510
2841.50,0.0509
2841.00,0.0509
2840.50,0.0508
2840.00,0.0507
2839.50,0.0506
2839.00,0.0506
2838.50,0.0505
2838.00,0.0505
2837.50,0.0505
2837.00,0.0504
2836.50,0.0504
2836.00,0.0503
2835.50,0.0503
2835.00,0.0502
2834.50,0.0502
2834.00,0.0501
2833.50,0.0501
2833.00,0.0500
2832.50,0.0499
2832.00,0.0499
2831.50,0.0498
2831.00,0.0498
2830.50,0.0497
2830.00,0.0497
2829.50,0.0496
2829.00,0.0496
2828.50,0.0496
2828.00,0.0496
2827.50,0.0495
2827.00,0.0495
2826.50,0.0495
2826.00,0.0494
2825.50,0.0494
2825.00,0.0494
2824.50,0.0494
2824.00,0.0494
2823.50,0.0494
2823.00,0.0494
2822.50,0.0494
2822.00,0.0494
2821.50,0.0494
2821.00,0.0495
2820.50,0.0495
2820.00,0.0495
2819.50,0.0495
2819.00,0.0496
2818.50,0.0496
2818.00,0.0496
2817.50,0.0496
2817.00,0.0497
2816.50,0.0497
2816.00,0.0497
2815.50,0.0498
2815.00,0.0498
2814.50,0.0498
2814.00,0.0498
2813.50,0.0498
2813.00,0.0498
2812.50,0.0498
2812.00,0.0498
2811.50,0.0498
2811.00,0.0498
2810.50,0.0497
2810.00,0.0497
2809.50,0.0497
2809.00,0.0498
2808.50,0.0498
2808.00,0.0498
2807.50,0.0498
2807.00,0.0498
2806.50,0.0497
2806.00,0.0497
2805.50,0.0497
2805.00,0.0497
2804.50,0.0496
2804.00,0.0496
2803.50,0.0496
2803.00,0.0496
2802.50,0.0496
2802.00,0.0495
2801.50,0.0495
2801.00,0.0495
2800.50,0.0494
2800.00,0.0494
2799.50,0.0493
2799.00,0.0493
2798.50,0.0492
2798.00,0.0492
2797.50,0.0492
2797.00,0.0492
2796.50,0.0491
2796.00,0.0491
2795.50,0.0490
2795.00,0.0490
2794.50,0.0489
2794.00,0.0488
2793.50,0.0487
2793.00,0.0486
2792.50,0.0485
2792.00,0.0484
2791.50,0.0483
2791.00,0.0482
2790.50,0.0480
2790.00,0.0478
2789.50,0.0477
2789.00,0.0475
2788.50,0.0473
2788.00,0.0472
2787.50,0.0470
2787.00,0.0469
2786.50,0.0467
2786.00,0.0465
2785.50,0.0463
2785.00,0.0461
2784.50,0.0459
2784.00,0.0457
2783.50,0.0456
2783.00,0.0454
2782.50,0.0452
2782.00,0.0450
2781.50,0.0448
2781.00,0.0446
2780.50,0.0445
2780.00,0.0443
2779.50,0.0442
2779.00,0.0440
2778.50,0.0439
2778.00,0.0437
2777.50,0.0436
2777.00,0.0434
2776.50,0.0433
2776.00,0.0431
2775.50,0.0430
2775.00,0.0429
2774.50,0.0428
2774.00,0.0427
2773.50,0.0426
2773.00,0.0425
2772.50,0.0424
2772.00,0.0424
2771.50,0.0423
2771.00,0.0422
2770.50,0.0421
2770.00,0.0420
2769.50,0.0419
2769.00,0.0419
2768.50,0.0418
2768.00,0.0417
2767.50,0.0416
2767.00,0.0416
2766.50,0.0415
2766.00,0.0415
2765.50,0.0414
2765.00,0.0413
2764.50,0.0413
2764.00,0.0412
2763.50,0.0412
2763.00,0.0411
2762.50,0.0411
2762.00,0.0410
2761.50,0.0410
2761.00,0.0410
2760.50,0.0409
2760.00,0.0409
2759.50,0.0408
2759.00,0.0408
2758.50,0.0408
2758.00,0.0407
2757.50,0.0407
2757.00,0.0407
2756.50,0.0406
2756.00,0.0406
2755.50,0.0405
2755.00,0.0405
2754.50,0.0405
2754.00,0.0405
2753.50,0.0404
2753.00,0.0404
2752.50,0.0404
2752.00,0.0403
2751.50,0.0403
2751.00,0.0402
2750.50,0.0402
2750.00,0.0402
2749.50,0.0401
2749.00,0.0401
2748.50,0.0401
2748.00,0.0400
2747.50,0.0400
2747.00,0.0400
2746.50,0.0400
2746.00,0.0400
2745.50,0.0400
2745.00,0.0400
2744.50,0.0400
2744.00,0.0399
2743.50,0.0399
2743.00,0.0399
2742.50,0.0399
2742.00,0.0398
2741.50,0.0398
2741.00,0.0398
2740.50,0.0398
2740.00,0.0397
2739.50,0.0397
2739.00,0.0397
2738.50,0.0397
2738.00,0.0396
2737.50,0.0396
2737.00,0.0396
2736.50,0.0396
2736.00,0.0396
2735.50,0.0396
2735.00,0.0396
2734.50,0.0396
2734.00,0.0396
2733.50,0.0396
2733.00,0.0396
2732.50,0.0396
2732.00,0.0396
2731.50,0.0395
2731.00,0.0395
2730.50,0.0395
2730.00,0.0395
2729.50,0.0395
2729.00,0.0395
2728.50,0.0395
2728.00,0.0394
2727.50,0.0394
2727.00,0.0393
2726.50,0.0393
2726.00,0.0393
2725.50,0.0393
2725.00,0.0394
2724.50,0.0394
2724.00,0.0394
2723.50,0.0394
2723.00,0.0393
2722.50,0.0393
2722.00,0.0393
2721.50,0.0394
2721.00,0.0394
2720.50,0.0394
2720.00,0.0394
2719.50,0.0394
2719.00,0.0394
2718.50,0.0394
2718.00,0.0394
2717.50,0.0393
2717.00,0.0393
2716.50,0.0393
2716.00,0.0393
2715.50,0.0393
2715.00,0.0393
2714.50,0.0393
2714.00,0.0393
2713.50,0.0393
2713.00,0.0393
2712.50,0.0393
2712.00,0.0393
2711.50,0.0393
2711.00,0.0393
2710.50,0.0393
2710.00,0.0393
2709.50,0.0393
2709.00,0.0393
2708.50,0.0393
2708.00,0.0393
2707.50,0.0393
2707.00,0.0393
2706.50,0.0393
2706.00,0.0393
2705.50,0.0393
2705.00,0.0393
2704.50,0.0393
2704.00,0.0393
2703.50,0.0393
2703.00,0.0393
2702.50,0.0393
2702.00,0.0393
2701.50,0.0393
2701.00,0.0393
2700.50,0.0392
2700.00,0.0392
2699.50,0.0392
2699.00,0.0392
2698.50,0.0392
2698.00,0.0392
2697.50,0.0392
2697.00,0.0392
2696.50,0.0392
2696.00,0.0392
2695.50,0.0392
2695.00,0.0392
2694.50,0.0392
2694.00,0.0392
2693.50,0.0392
2693.00,0.0392
2692.50,0.0392
2692.00,0.0392
2691.50,0.0392
2691.00,0.0391
2690.50,0.0391
2690.00,0.0391
2689.50,0.0391
2689.00,0.0391
2688.50,0.0391
2688.00,0.0391
2687.50,0.0391
2687.00,0.0391
2686.50,0.0392
2686.00,0.0392
2685.50,0.0392
2685.00,0.0392
2684.50,0.0392
2684.00,0.0392
2683.50,0.0392
2683.00,0.0392
2682.50,0.0392
2682.00,0.0392
2681.50,0.0392
2681.00,0.0392
2680.50,0.0392
2680.00,0.0393
2679.50,0.0393
2679.00,0.0394
2678.50,0.0394
2678.00,0.0394
2677.50,0.0394
2677.00,0.0395
2676.50,0.0395
2676.00,0.0396
2675.50,0.0396
2675.00,0.0396
2674.50,0.0397
2674.00,0.0397
2673.50,0.0397
2673.00,0.0398
2672.50,0.0398
2672.00,0.0399
2671.50,0.0399
2671.00,0.0400
2670.50,0.0400
2670.00,0.0401
2669.50,0.0401
2669.00,0.0401
2668.50,0.0402
2668.00,0.0402
2667.50,0.0402
2667.00,0.0402
2666.50,0.0403
2666.00,0.0403
2665.50,0.0403
2665.00,0.0403
2664.50,0.0403
2664.00,0.0403
2663.50,0.0404
2663.00,0.0404
2662.50,0.0404
2662.00,0.0404
2661.50,0.0403
2661.00,0.0403
2660.50,0.0403
2660.00,0.0403
2659.50,0.0403
2659.00,0.0403
2658.50,0.0402
2658.00,0.0402
2657.50,0.0402
2657.00,0.0401
2656.50,0.0401
2656.00,0.0401
2655.50,0.0400
2655.00,0.0400
2654.50,0.0399
2654.00,0.0399
2653.50,0.0398
2653.00,0.0398
2652.50,0.0398
2652.00,0.0397
2651.50,0.0397
2651.00,0.0396
2650.50,0.0396
2650.00,0.0395
2649.50,0.0395
2649.00,0.0394
2648.50,0.0394
2648.00,0.0393
2647.50,0.0393
2647.00,0.0392
2646.50,0.0392
2646.00,0.0391
2645.50,0.0391
2645.00,0.0390
2644.50,0.0390
2644.00,0.0390
2643.50,0.0389
2643.00,0.0389
2642.50,0.0388
2642.00,0.0388
2641.50,0.0388
2641.00,0.0387
2640.50,0.0387
2640.00,0.0387
2639.50,0.0386
2639.00,0.0386
2638.50,0.0386
2638.00,0.0385
2637.50,0.0385
2637.00,0.0385
2636.50,0.0385
2636.00,0.0384
2635.50,0.0384
2635.00,0.0384
2634.50,0.0383
2634.00,0.0383
2633.50,0.0383
2633.00,0.0383
2632.50,0.0383
2632.00,0.0382
2631.50,0.0382
2631.00,0.0382
2630.50,0.0382
2630.00,0.0382
2629.50,0.0381
2629.00,0.0381
2628.50,0.0381
2628.00,0.0381
2627.50,0.0381
2627.00,0.0381
2626.50,0.0380
2626.00,0.0380
2625.50,0.0380
2625.00,0.0380
2624.50,0.0380
2624.00,0.0380
2623.50,0.0380
2623.00,0.0380
2622.50,0.0379
2622.00,0.0379
2621.50,0.0379
2621.00,0.0379
2620.50,0.0379
2620.00,0.0379
2619.50,0.0379
2619.00,0.0379
2618.50,0.0379
2618.00,0.0379
2617.50,0.0379
2617.00,0.0379
2616.50,0.0379
2616.00,0.0379
2615.50,0.0379
2615.00,0.0378
2614.50,0.0378
2614.00,0.0378
2613.50,0.0378
2613.00,0.0378
2612.50,0.0378
2612.00,0.0378
2611.50,0.0378
2611.00,0.0378
2610.50,0.0378
2610.00,0.0378
2609.50,0.0377
2609.00,0.0377
2608.50,0.0377
2608.00,0.0377
2607.50,0.0377
2607.00,0.0377
2606.50,0.0377
2606.00,0.0377
2605.50,0.0377
2605.00,0.0377
2604.50,0.0377
2604.00,0.0377
2603.50,0.0376
2603.00,0.0376
2602.50,0.0376
2602.00,0.0376
2601.50,0.0376
2601.00,0.0376
2600.50,0.0376
2600.00,0.0376
2599.50,0.0376
2599.00,0.0376
2598.50,0.0376
2598.00,0.0376
2597.50,0.0376
2597.00,0.0376
2596.50,0.0376
2596.00,0.0376
2595.50,0.0375
2595.00,0.0375
2594.50,0.0375
2594.00,0.0375
2593.50,0.0375
2593.00,0.0375
2592.50,0.0375
2592.00,0.0375
2591.50,0.0375
2591.00,0.0375
2590.50,0.0375
2590.00,0.0375
2589.50,0.0375
2589.00,0.0375
2588.50,0.0375
2588.00,0.0375
2587.50,0.0375
2587.00,0.0375
2586.50,0.0375
2586.00,0.0375
2585.50,0.0375
2585.00,0.0375
2584.50,0.0375
2584.00,0.0375
2583.50,0.0375
2583.00,0.0375
2582.50,0.0375
2582.00,0.0375
2581.50,0.0375
2581.00,0.0374
2580.50,0.0374
2580.00,0.0374
2579.50,0.0374
2579.00,0.0374
2578.50,0.0374
2578.00,0.0374
2577.50,0.0374
2577.00,0.0374
2576.50,0.0374
2576.00,0.0374
2575.50,0.0374
2575.00,0.0374
2574.50,0.0374
2574.00,0.0374
2573.50,0.0374
2573.00,0.0374
2572.50,0.0373
2572.00,0.0373
2571.50,0.0373
2571.00,0.0373
2570.50,0.0373
2570.00,0.0373
2569.50,0.0373
2569.00,0.0373
2568.50,0.0373
2568.00,0.0373
2567.50,0.0373
2567.00,0.0373
2566.50,0.0373
2566.00,0.0373
2565.50,0.0373
2565.00,0.0373
2564.50,0.0373
2564.00,0.0373
2563.50,0.0373
2563.00,0.0373
2562.50,0.0373
2562.00,0.0373
2561.50,0.0373
2561.00,0.0373
2560.50,0.0373
2560.00,0.0373
2559.50,0.0373
2559.00,0.0373
2558.50,0.0373
2558.00,0.0373
2557.50,0.0373
2557.00,0.0373
2556.50,0.0373
2556.00,0.0373
2555.50,0.0373
2555.00,0.0373
2554.50,0.0373
2554.00,0.0373
2553.50,0.0373
2553.00,0.0373
2552.50,0.0373
2552.00,0.0373
2551.50,0.0372
2551.00,0.0372
2550.50,0.0372
2550.00,0.0372
2549.50,0.0372
2549.00,0.0372
2548.50,0.0372
2548.00,0.0372
2547.50,0.0372
2547.00,0.0372
2546.50,0.0372
2546.00,0.0372
2545.50,0.0372
2545.00,0.0372
2544.50,0.0371
2544.00,0.0371
2543.50,0.0371
2543.00,0.0371
2542.50,0.0371
2542.00,0.0371
2541.50,0.0370
2541.00,0.0370
2540.50,0.0370
2540.00,0.0370
2539.50,0.0370
2539.00,0.0370
2538.50,0.0370
2538.00,0.0370
2537.50,0.0370
2537.00,0.0370
2536.50,0.0370
2536.00,0.0370
2535.50,0.0370
2535.00,0.0369
2534.50,0.0369
2534.00,0.0369
2533.50,0.0369
2533.00,0.0370
2532.50,0.0370
2532.00,0.0370
2531.50,0.0370
2531.00,0.0369
2530.50,0.0369
2530.00,0.0369
2529.50,0.0369
2529.00,0.0370
2528.50,0.0370
2528.00,0.0370
2527.50,0.0370
2527.00,0.0370
2526.50,0.0370
2526.00,0.0370
2525.50,0.0370
2525.00,0.0370
2524.50,0.0370
2524.00,0.0370
2523.50,0.0370
2523.00,0.0370
2522.50,0.0370
2522.00,0.0370
2521.50,0.0371
2521.00,0.0371
2520.50,0.0371
2520.00,0.0371
2519.50,0.0371
2519.00,0.0371
2518.50,0.0371
2518.00,0.0371
2517.50,0.0371
2517.00,0.0371
2516.50,0.0371
2516.00,0.0372
2515.50,0.0372
2515.00,0.0372
2514.50,0.0372
2514.00,0.0373
2513.50,0.0373
2513.00,0.0373
2512.50,0.0374
2512.00,0.0374
2511.50,0.0375
2511.00,0.0375
2510.50,0.0376
2510.00,0.0376
2509.50,0.0377
2509.00,0.0377
2508.50,0.0378
2508.00,0.0379
2507.50,0.0380
2507.00,0.0381
2506.50,0.0382
2506.00,0.0383
2505.50,0.0384
2505.00,0.0385
2504.50,0.0386
2504.00,0.0388
2503.50,0.0389
2503.00,0.0390
2502.50,0.0391
2502.00,0.0392
2501.50,0.0393
2501.00,0.0394
2500.50,0.0395
2500.00,0.0396
2499.50,0.0396
2499.00,0.0396
2498.50,0.0396
2498.00,0.0396
2497.50,0.0395
2497.00,0.0395
2496.50,0.0394
2496.00,0.0394
2495.50,0.0393
2495.00,0.0392
2494.50,0.0391
2494.00,0.0391
2493.50,0.0390
2493.00,0.0389
2492.50,0.0388
2492.00,0.0387
2491.50,0.0386
2491.00,0.0386
2490.50,0.0385
2490.00,0.0384
2489.50,0.0383
2489.00,0.0383
2488.50,0.0382
2488.00,0.0382
2487.50,0.0381
2487.00,0.0380
2486.50,0.0380
2486.00,0.0379
2485.50,0.0379
2485.00,0.0378
2484.50,0.0378
2484.00,0.0378
2483.50,0.0377
2483.00,0.0377
2482.50,0.0376
2482.00,0.0376
2481.50,0.0376
2481.00,0.0375
2480.50,0.0375
2480.00,0.0375
2479.50,0.0375
2479.00,0.0375
2478.50,0.0374
2478.00,0.0374
2477.50,0.0374
2477.00,0.0374
2476.50,0.0374
2476.00,0.0374
2475.50,0.0374
2475.00,0.0373
2474.50,0.0373
2474.00,0.0373
2473.50,0.0373
2473.00,0.0373
2472.50,0.0373
2472.00,0.0373
2471.50,0.0373
2471.00,0.0373
2470.50,0.0372
2470.00,0.0372
2469.50,0.0372
2469.00,0.0372
2468.50,0.0372
2468.00,0.0372
2467.50,0.0372
2467.00,0.0372
2466.50,0.0372
2466.00,0.0372
2465.50,0.0372
2465.00,0.0372
2464.50,0.0372
2464.00,0.0372
2463.50,0.0372
2463.00,0.0371
2462.50,0.0371
2462.00,0.0371
2461.50,0.0371
2461.00,0.0371
2460.50,0.0371
2460.00,0.0371
2459.50,0.0371
2459.00,0.0371
2458.50,0.0371
2458.00,0.0371
2457.50,0.0370
2457.00,0.0370
2456.50,0.0370
2456.00,0.0370
2455.50,0.0370
2455.00,0.0370
2454.50,0.0370
2454.00,0.0370
2453.50,0.0370
2453.00,0.0370
2452.50,0.0370
2452.00,0.0370
2451.50,0.0370
2451.00,0.0370
2450.50,0.0370
2450.00,0.0370
2449.50,0.0370
2449.00,0.0369
2448.50,0.0369
2448.00,0.0370
2447.50,0.0370
2447.00,0.0370
2446.50,0.0370
2446.00,0.0370
2445.50,0.0370
2445.00,0.0370
2444.50,0.0370
2444.00,0.0369
2443.50,0.0369
2443.00,0.0369
2442.50,0.0369
2442.00,0.0369
2441.50,0.0369
2441.00,0.0369
2440.50,0.0369
2440.00,0.0369
2439.50,0.0369
2439.00,0.0369
2438.50,0.0369
2438.00,0.0369
2437.50,0.0369
2437.00,0.0369
2436.50,0.0369
2436.00,0.0369
2435.50,0.0369
2435.00,0.0369
2434.50,0.0369
2434.00,0.0369
2433.50,0.0369
2433.00,0.0368
2432.50,0.0368
2432.00,0.0368
2431.50,0.0368
2431.00,0.0368
2430.50,0.0368
2430.00,0.0368
2429.50,0.0368
2429.00,0.0368
2428.50,0.0368
2428.00,0.0368
2427.50,0.0368
2427.00,0.0368
2426.50,0.0368
2426.00,0.0368
2425.50,0.0368
2425.00,0.0368
2424.50,0.0368
2424.00,0.0368
2423.50,0.0368
2423.00,0.0368
2422.50,0.0367
2422.00,0.0367
2421.50,0.0367
2421.00,0.0367
2420.50,0.0367
2420.00,0.0367
2419.50,0.0367
2419.00,0.0367
2418.50,0.0367
2418.00,0.0368
2417.50,0.0368
2417.00,0.0367
2416.50,0.0367
2416.00,0.0367
2415.50,0.0367
2415.00,0.0367
2414.50,0.0367
2414.00,0.0367
2413.50,0.0367
2413.00,0.0368
2412.50,0.0368
2412.00,0.0368
2411.50,0.0368
2411.00,0.0368
2410.50,0.0367
2410.00,0.0367
2409.50,0.0367
2409.00,0.0367
2408.50,0.0367
2408.00,0.0367
2407.50,0.0367
2407.00,0.0367
2406.50,0.0367
2406.00,0.0367
2405.50,0.0367
2405.00,0.0367
2404.50,0.0367
2404.00,0.0367
2403.50,0.0367
2403.00,0.0367
2402.50,0.0367
2402.00,0.0367
2401.50,0.0367
2401.00,0.0367
2400.50,0.0367
2400.00,0.0367
2399.50,0.0367
2399.00,0.0367
2398.50,0.0367
2398.00,0.0367
2397.50,0.0367
2397.00,0.0367
2396.50,0.0367
2396.00,0.0366
2395.50,0.0366
2395.00,0.0366
2394.50,0.0366
2394.00,0.0366
2393.50,0.0366
2393.00,0.0366
2392.50,0.0366
2392.00,0.0366
2391.50,0.0366
2391.00,0.0366
2390.50,0.0366
2390.00,0.0366
2389.50,0.0366
2389.00,0.0366
2388.50,0.0366
2388.00,0.0366
2387.50,0.0366
2387.00,0.0366
2386.50,0.0366
2386.00,0.0366
2385.50,0.0366
2385.00,0.0366
2384.50,0.0366
2384.00,0.0365
2383.50,0.0365
2383.00,0.0365
2382.50,0.0365
2382.00,0.0365
2381.50,0.0365
2381.00,0.0365
2380.50,0.0366
2380.00,0.0366
2379.50,0.0367
2379.00,0.0368
2378.50,0.0368
2378.00,0.0369
2377.50,0.0370
2377.00,0.0370
2376.50,0.0371
2376.00,0.0371
2375.50,0.0371
2375.00,0.0371
2374.50,0.0371
2374.00,0.0371
2373.50,0.0370
2373.00,0.0370
2372.50,0.0370
2372.00,0.0369
2371.50,0.0369
2371.00,0.0369
2370.50,0.0368
2370.00,0.0368
2369.50,0.0368
2369.00,0.0368
2368.50,0.0368
2368.00,0.0369
2367.50,0.0369
2367.00,0.0369
2366.50,0.0369
2366.00,0.0369
2365.50,0.0368
2365.00,0.0369
2364.50,0.0369
2364.00,0.0369
2363.50,0.0369
2363.00,0.0369
2362.50,0.0370
2362.00,0.0370
2361.50,0.0369
2361.00,0.0369
2360.50,0.0369
2360.00,0.0369
2359.50,0.0369
2359.00,0.0370
2358.50,0.0369
2358.00,0.0368
2357.50,0.0367
2357.00,0.0367
2356.50,0.0368
2356.00,0.0368
2355.50,0.0369
2355.00,0.0370
2354.50,0.0370
2354.00,0.0369
2353.50,0.0369
2353.00,0.0369
2352.50,0.0370
2352.00,0.0370
2351.50,0.0370
2351.00,0.0369
2350.50,0.0368
2350.00,0.0367
2349.50,0.0367
2349.00,0.0368
2348.50,0.0368
2348.00,0.0369
2347.50,0.0370
2347.00,0.0370
2346.50,0.0370
2346.00,0.0370
2345.50,0.0369
2345.00,0.0368
2344.50,0.0368
2344.00,0.0367
2343.50,0.0366
2343.00,0.0365
2342.50,0.0366
2342.00,0.0366
2341.50,0.0366
2341.00,0.0367
2340.50,0.0369
2340.00,0.0369
2339.50,0.0370
2339.00,0.0370
2338.50,0.0370
2338.00,0.0370
2337.50,0.0370
2337.00,0.0370
2336.50,0.0370
2336.00,0.0370
2335.50,0.0370
2335.00,0.0370
2334.50,0.0371
2334.00,0.0370
2333.50,0.0370
2333.00,0.0370
2332.50,0.0370
2332.00,0.0370
2331.50,0.0370
2331.00,0.0370
2330.50,0.0370
2330.00,0.0370
2329.50,0.0369
2329.00,0.0369
2328.50,0.0368
2328.00,0.0368
2327.50,0.0368
2327.00,0.0367
2326.50,0.0368
2326.00,0.0369
2325.50,0.0368
2325.00,0.0367
2324.50,0.0367
2324.00,0.0368
2323.50,0.0368
2323.00,0.0367
2322.50,0.0367
2322.00,0.0368
2321.50,0.0367
2321.00,0.0367
2320.50,0.0367
2320.00,0.0368
2319.50,0.0368
2319.00,0.0367
2318.50,0.0367
2318.00,0.0368
2317.50,0.0367
2317.00,0.0366
2316.50,0.0367
2316.00,0.0368
2315.50,0.0368
2315.00,0.0367
2314.50,0.0367
2314.00,0.0368
2313.50,0.0368
2313.00,0.0367
2312.50,0.0367
2312.00,0.0367
2311.50,0.0367
2311.00,0.0366
2310.50,0.0366
2310.00,0.0366
2309.50,0.0366
2309.00,0.0366
2308.50,0.0365
2308.00,0.0366
2307.50,0.0366
2307.00,0.0366
2306.50,0.0365
2306.00,0.0366
2305.50,0.0367
2305.00,0.0367
2304.50,0.0366
2304.00,0.0366
2303.50,0.0366
2303.00,0.0366
2302.50,0.0366
2302.00,0.0366
2301.50,0.0366
2301.00,0.0367
2300.50,0.0366
2300.00,0.0366
2299.50,0.0367
2299.00,0.0367
2298.50,0.0367
2298.00,0.0366
2297.50,0.0367
2297.00,0.0367
2296.50,0.0367
2296.00,0.0367
2295.50,0.0367
2295.00,0.0368
2294.50,0.0368
2294.00,0.0368
2293.50,0.0368
2293.00,0.0368
2292.50,0.0368
2292.00,0.0368
2291.50,0.0368
2291.00,0.0369
2290.50,0.0369
2290.00,0.0369
2289.50,0.0369
2289.00,0.0369
2288.50,0.0369
2288.00,0.0369
2287.50,0.0369
2287.00,0.0369
2286.50,0.0369
2286.00,0.0369
2285.50,0.0370
2285.00,0.0370
2284.50,0.0370
2284.00,0.0370
2283.50,0.0370
2283.00,0.0370
2282.50,0.0370
2282.00,0.0370
2281.50,0.0370
2281.00,0.0370
2280.50,0.0370
2280.00,0.0370
2279.50,0.0370
2279.00,0.0371
2278.50,0.0371
2278.00,0.0371
2277.50,0.0371
2277.00,0.0371
2276.50,0.0371
2276.00,0.0371
2275.50,0.0371
2275.00,0.0371
2274.50,0.0371
2274.00,0.0371
2273.50,0.0371
2273.00,0.0371
2272.50,0.0372
2272.00,0.0371
2271.50,0.0372
2271.00,0.0372
2270.50,0.0372
2270.00,0.0372
2269.50,0.0372
2269.00,0.0372
2268.50,0.0372
2268.00,0.0372
2267.50,0.0372
2267.00,0.0372
2266.50,0.0372
2266.00,0.0372
2265.50,0.0372
2265.00,0.0372
2264.50,0.0372
2264.00,0.0372
2263.50,0.0372
2263.00,0.0372
2262.50,0.0372
2262.00,0.0372
2261.50,0.0372
2261.00,0.0372
2260.50,0.0372
2260.00,0.0372
2259.50,0.0372
2259.00,0.0372
2258.50,0.0372
2258.00,0.0372
2257.50,0.0372
2257.00,0.0372
2256.50,0.0372
2256.00,0.0372
2255.50,0.0372
2255.00,0.0372
2254.50,0.0372
2254.00,0.0372
2253.50,0.0372
2253.00,0.0372
2252.50,0.0372
2252.00,0.0372
2251.50,0.0372
2251.00,0.0372
2250.50,0.0372
2250.00,0.0372
2249.50,0.0373
2249.00,0.0373
2248.50,0.0373
2248.00,0.0373
2247.50,0.0373
2247.00,0.0373
2246.50,0.0373
2246.00,0.0373
2245.50,0.0373
2245.00,0.0374
2244.50,0.0374
2244.00,0.0374
2243.50,0.0374
2243.00,0.0374
2242.50,0.0374
2242.00,0.0374
2241.50,0.0374
2241.00,0.0374
2240.50,0.0375
2240.00,0.0375
2239.50,0.0375
2239.00,0.0375
2238.50,0.0375
2238.00,0.0375
2237.50,0.0375
2237.00,0.0376
2236.50,0.0376
2236.00,0.0376
2235.50,0.0376
2235.00,0.0376
2234.50,0.0377
2234.00,0.0377
2233.50,0.0377
2233.00,0.0377
2232.50,0.0377
2232.00,0.0377
2231.50,0.0377
2231.00,0.0378
2230.50,0.0378
2230.00,0.0378
2229.50,0.0378
2229.00,0.0378
2228.50,0.0379
2228.00,0.0379
2227.50,0.0379
2227.00,0.0379
2226.50,0.0380
2226.00,0.0380
2225.50,0.0380
2225.00,0.0381
2224.50,0.0381
2224.00,0.0381
2223.50,0.0381
2223.00,0.0382
2222.50,0.0382
2222.00,0.0382
2221.50,0.0383
2221.00,0.0383
2220.50,0.0384
2220.00,0.0384
2219.50,0.0384
2219.00,0.0385
2218.50,0.0385
2218.00,0.0386
2217.50,0.0386
2217.00,0.0387
2216.50,0.0387
2216.00,0.0387
2215.50,0.0388
2215.00,0.0388
2214.50,0.0389
2214.00,0.0389
2213.50,0.0390
2213.00,0.0390
2212.50,0.0391
2212.00,0.0391
2211.50,0.0392
2211.00,0.0393
2210.50,0.0393
2210.00,0.0394
2209.50,0.0395
2209.00,0.0395
2208.50,0.0396
2208.00,0.0397
2207.50,0.0397
2207.00,0.0398
2206.50,0.0399
2206.00,0.0400
2205.50,0.0401
2205.00,0.0402
2204.50,0.0402
2204.00,0.0403
2203.50,0.0404
2203.00,0.0405
2202.50,0.0406
2202.00,0.0407
2201.50,0.0408
2201.00,0.0409
2200.50,0.0411
2200.00,0.0412
2199.50,0.0413
2199.00,0.0414
2198.50,0.0416
2198.00,0.0417
2197.50,0.0418
2197.00,0.0420
2196.50,0.0421
2196.00,0.0423
2195.50,0.0425
2195.00,0.0427
2194.50,0.0428
2194.00,0.0430
2193.50,0.0432
2193.00,0.0434
2192.50,0.0436
2192.00,0.0438
2191.50,0.0440
2191.00,0.0443
2190.50,0.0445
2190.00,0.0448
2189.50,0.0450
2189.00,0.0453
2188.50,0.0456
2188.00,0.0458
2187.50,0.0461
2187.00,0.0464
2186.50,0.0467
2186.00,0.0471
2185.50,0.0474
2185.00,0.0477
2184.50,0.0480
2184.00,0.0484
2183.50,0.0487
2183.00,0.0491
2182.50,0.0495
2182.00,0.0499
2181.50,0.0503
2181.00,0.0507
2180.50,0.0511
2180.00,0.0515
2179.50,0.0519
2179.00,0.0523
2178.50,0.0528
2178.00,0.0532
2177.50,0.0536
2177.00,0.0540
2176.50,0.0545
2176.00,0.0549
2175.50,0.0553
2175.00,0.0558
2174.50,0.0562
2174.00,0.0566
2173.50,0.0570
2173.00,0.0574
2172.50,0.0578
2172.00,0.0582
2171.50,0.0585
2171.00,0.0589
2170.50,0.0593
2170.00,0.0596
2169.50,0.0599
2169.00,0.0602
2168.50,0.0605
2168.00,0.0608
2167.50,0.0610
2167.00,0.0612
2166.50,0.0615
2166.00,0.0616
2165.50,0.0618
2165.00,0.0619
2164.50,0.0621
2164.00,0.0621
2163.50,0.0622
2163.00,0.0623
2162.50,0.0623
2162.00,0.0623
2161.50,0.0622
2161.00,0.0622
2160.50,0.0621
2160.00,0.0620
2159.50,0.0619
2159.00,0.0617
2158.50,0.0615
2158.00,0.0613
2157.50,0.0611
2157.00,0.0609
2156.50,0.0606
2156.00,0.0603
2155.50,0.0601
2155.00,0.0597
2154.50,0.0594
2154.00,0.0591
2153.50,0.0587
2153.00,0.0583
2152.50,0.0580
2152.00,0.0576
2151.50,0.0572
2151.00,0.0568
2150.50,0.0564
2150.00,0.0559
2149.50,0.0555
2149.00,0.0551
2148.50,0.0547
2148.00,0.0542
2147.50,0.0538
2147.00,0.0534
2146.50,0.0530
2146.00,0.0525
2145.50,0.0521
2145.00,0.0517
2144.50,0.0513
2144.00,0.0509
2143.50,0.0505
2143.00,0.0501
2142.50,0.0497
2142.00,0.0493
2141.50,0.0490
2141.00,0.0486
2140.50,0.0483
2140.00,0.0479
2139.50,0.0476
2139.00,0.0473
2138.50,0.0470
2138.00,0.0467
2137.50,0.0464
2137.00,0.0461
2136.50,0.0458
2136.00,0.0455
2135.50,0.0453
2135.00,0.0450
2134.50,0.0448
2134.00,0.0446
2133.50,0.0443
2133.00,0.0441
2132.50,0.0439
2132.00,0.0437
2131.50,0.0435
2131.00,0.0434
2130.50,0.0432
2130.00,0.0430
2129.50,0.0429
2129.00,0.0427
2128.50,0.0426
2128.00,0.0424
2127.50,0.0423
2127.00,0.0422
2126.50,0.0420
2126.00,0.0419
2125.50,0.0418
2125.00,0.0417
2124.50,0.0416
2124.00,0.0415
2123.50,0.0414
2123.00,0.0413
2122.50,0.0412
2122.00,0.0411
2121.50,0.0411
2121.00,0.0410
2120.50,0.0409
2120.00,0.0408
2119.50,0.0408
2119.00,0.0407
2118.50,0.0406
2118.00,0.0406
2117.50,0.0405
2117.00,0.0404
2116.50,0.0404
2116.00,0.0403
2115.50,0.0403
2115.00,0.0402
2114.50,0.0402
2114.00,0.0401
2113.50,0.0401
2113.00,0.0401
2112.50,0.0400
2112.00,0.0400
2111.50,0.0399
2111.00,0.0399
2110.50,0.0399
2110.00,0.0398
2109.50,0.0398
2109.00,0.0398
2108.50,0.0398
2108.00,0.0397
2107.50,0.0397
2107.00,0.0397
2106.50,0.0397
2106.00,0.0396
2105.50,0.0396
2105.00,0.0396
2104.50,0.0396
2104.00,0.0396
2103.50,0.0396
2103.00,0.0395
2102.50,0.0395
2102.00,0.0395
2101.50,0.0395
2101.00,0.0395
2100.50,0.0395
2100.00,0.0394
2099.50,0.0394
2099.00,0.0394
2098.50,0.0394
2098.00,0.0394
2097.50,0.0393
2097.00,0.0393
2096.50,0.0393
2096.00,0.0393
2095.50,0.0393
2095.00,0.0393
2094.50,0.0393
2094.00,0.0392
2093.50,0.0392
2093.00,0.0392
2092.50,0.0392
2092.00,0.0392
2091.50,0.0392
2091.00,0.0392
2090.50,0.0392
2090.00,0.0392
2089.50,0.0392
2089.00,0.0392
2088.50,0.0391
2088.00,0.0391
2087.50,0.0391
2087.00,0.0391
2086.50,0.0391
2086.00,0.0391
2085.50,0.0391
2085.00,0.0391
2084.50,0.0391
2084.00,0.0391
2083.50,0.0391
2083.00,0.0391
2082.50,0.0391
2082.00,0.0391
2081.50,0.0392
2081.00,0.0392
2080.50,0.0392
2080.00,0.0392
2079.50,0.0392
2079.00,0.0392
2078.50,0.0392
2078.00,0.0392
2077.50,0.0392
2077.00,0.0392
2076.50,0.0392
2076.00,0.0392
2075.50,0.0392
2075.00,0.0393
2074.50,0.0393
2074.00,0.0393
2073.50,0.0393
2073.00,0.0393
2072.50,0.0393
2072.00,0.0394
2071.50,0.0394
2071.00,0.0394
2070.50,0.0394
2070.00,0.0394
2069.50,0.0395
2069.00,0.0395
2068.50,0.0395
2068.00,0.0395
2067.50,0.0395
2067.00,0.0396
2066.50,0.0396
2066.00,0.0396
2065.50,0.0396
2065.00,0.0397
2064.50,0.0397
2064.00,0.0397
2063.50,0.0397
2063.00,0.0398
2062.50,0.0398
2062.00,0.0398
2061.50,0.0398
2061.00,0.0399
2060.50,0.0399
2060.00,0.0399
2059.50,0.0399
2059.00,0.0400
2058.50,0.0400
2058.00,0.0400
2057.50,0.0400
2057.00,0.0401
2056.50,0.0401
2056.00,0.0401
2055.50,0.0401
2055.00,0.0402
2054.50,0.0402
2054.00,0.0402
2053.50,0.0402
2053.00,0.0402
2052.50,0.0402
2052.00,0.0402
2051.50,0.0402
2051.00,0.0402
2050.50,0.0402
2050.00,0.0402
2049.50,0.0402
2049.00,0.0401
2048.50,0.0401
2048.00,0.0401
2047.50,0.0400
2047.00,0.0400
2046.50,0.0399
2046.00,0.0398
2045.50,0.0398
2045.00,0.0397
2044.50,0.0396
2044.00,0.0395
2043.50,0.0394
2043.00,0.0394
2042.50,0.0393
2042.00,0.0392
2041.50,0.0391
2041.00,0.0390
2040.50,0.0389
2040.00,0.0389
2039.50,0.0388
2039.00,0.0387
2038.50,0.0387
2038.00,0.0386
2037.50,0.0385
2037.00,0.0385
2036.50,0.0384
2036.00,0.0384
2035.50,0.0383
2035.00,0.0383
2034.50,0.0383
2034.00,0.0382
2033.50,0.0382
2033.00,0.0382
2032.50,0.0381
2032.00,0.0381
2031.50,0.0381
2031.00,0.0381
2030.50,0.0381
2030.00,0.0381
2029.50,0.0380
2029.00,0.0380
2028.50,0.0380
2028.00,0.0380
2027.50,0.0381
2027.00,0.0381
2026.50,0.0381
2026.00,0.0381
2025.50,0.0381
2025.00,0.0381
2024.50,0.0381
2024.00,0.0382
2023.50,0.0382
2023.00,0.0382
2022.50,0.0382
2022.00,0.0383
2021.50,0.0383
2021.00,0.0383
2020.50,0.0384
2020.00,0.0384
2019.50,0.0384
2019.00,0.0385
2018.50,0.0385
2018.00,0.0386
2017.50,0.0386
2017.00,0.0386
2016.50,0.0387
2016.00,0.0387
2015.50,0.0388
2015.00,0.0388
2014.50,0.0389
2014.00,0.0389
2013.50,0.0389
2013.00,0.0390
2012.50,0.0390
2012.00,0.0391
2011.50,0.0391
2011.00,0.0392
2010.50,0.0392
2010.00,0.0393
2009.50,0.0393
2009.00,0.0394
2008.50,0.0394
2008.00,0.0394
2007.50,0.0395
2007.00,0.0395
2006.50,0.0395
2006.00,0.0395
2005.50,0.0396
2005.00,0.0396
2004.50,0.0396
2004.00,0.0396
2003.50,0.0396
2003.00,0.0397
2002.50,0.0397
2002.00,0.0397
2001.50,0.0398
2001.00,0.0398
2000.50,0.0398
2000.00,0.0398
1999.50,0.0399
1999.00,0.0399
1998.50,0.0399
1998.00,0.0399
1997.50,0.0399
1997.00,0.0399
1996.50,0.0399
1996.00,0.0399
1995.50,0.0399
1995.00,0.0399
1994.50,0.0399
1994.00,0.0399
1993.50,0.0398
1993.00,0.0398
1992.50,0.0398
1992.00,0.0398
1991.50,0.0398
1991.00,0.0398
1990.50,0.0398
1990.00,0.0399
1989.50,0.0399
1989.00,0.0399
1988.50,0.0399
1988.00,0.0400
1987.50,0.0400
1987.00,0.0400
1986.50,0.0401
1986.00,0.0401
1985.50,0.0401
1985.00,0.0402
1984.50,0.0402
1984.00,0.0403
1983.50,0.0403
1983.00,0.0404
1982.50,0.0404
1982.00,0.0405
1981.50,0.0405
1981.00,0.0406
1980.50,0.0407
1980.00,0.0408
1979.50,0.0408
1979.00,0.0409
1978.50,0.0410
1978.00,0.0411
1977.50,0.0411
1977.00,0.0412
1976.50,0.0413
1976.00,0.0414
1975.50,0.0415
1975.00,0.0416
1974.50,0.0417
1974.00,0.0418
1973.50,0.0419
1973.00,0.0420
1972.50,0.0421
1972.00,0.0422
1971.50,0.0424
1971.00,0.0425
1970.50,0.0426
1970.00,0.0427
1969.50,0.0428
1969.00,0.0429
1968.50,0.0430
1968.00,0.0431
1967.50,0.0433
1967.00,0.0434
1966.50,0.0435
1966.00,0.0436
1965.50,0.0437
1965.00,0.0438
1964.50,0.0439
1964.00,0.0440
1963.50,0.0441
1963.00,0.0442
1962.50,0.0443
1962.00,0.0443
1961.50,0.0444
1961.00,0.0445
1960.50,0.0446
1960.00,0.0447
1959.50,0.0448
1959.00,0.0449
1958.50,0.0450
1958.00,0.0451
1957.50,0.0452
1957.00,0.0453
1956.50,0.0454
1956.00,0.0454
1955.50,0.0455
1955.00,0.0456
1954.50,0.0458
1954.00,0.0459
1953.50,0.0460
1953.00,0.0461
1952.50,0.0462
1952.00,0.0463
1951.50,0.0464
1951.00,0.0466
1950.50,0.0467
1950.00,0.0468
1949.50,0.0469
1949.00,0.0470
1948.50,0.0471
1948.00,0.0472
1947.50,0.0473
1947.00,0.0474
1946.50,0.0475
1946.00,0.0476
1945.50,0.0476
1945.00,0.0477
1944.50,0.0477
1944.00,0.0477
1943.50,0.0477
1943.00,0.0476
1942.50,0.0476
1942.00,0.0475
1941.50,0.0474
1941.00,0.0473
1940.50,0.0472
1940.00,0.0470
1939.50,0.0469
1939.00,0.0467
1938.50,0.0466
1938.00,0.0464
1937.50,0.0462
1937.00,0.0460
1936.50,0.0458
1936.00,0.0456
1935.50,0.0454
1935.00,0.0453
1934.50,0.0451
1934.00,0.0449
1933.50,0.0448
1933.00,0.0446
1932.50,0.0445
1932.00,0.0444
1931.50,0.0443
1931.00,0.0442
1930.50,0.0441
1930.00,0.0439
1929.50,0.0438
1929.00,0.0438
1928.50,0.0437
1928.00,0.0436
1927.50,0.0436
1927.00,0.0435
1926.50,0.0435
1926.00,0.0434
1925.50,0.0433
1925.00,0.0433
1924.50,0.0432
1924.00,0.0432
1923.50,0.0431
1923.00,0.0431
1922.50,0.0431
1922.00,0.0430
1921.50,0.0430
1921.00,0.0429
1920.50,0.0429
1920.00,0.0429
1919.50,0.0428
1919.00,0.0428
1918.50,0.0427
1918.00,0.0427
1917.50,0.0426
1917.00,0.0426
1916.50,0.0425
1916.00,0.0424
1915.50,0.0424
1915.00,0.0423
1914.50,0.0422
1914.00,0.0421
1913.50,0.0421
1913.00,0.0420
1912.50,0.0419
1912.00,0.0419
1911.50,0.0418
1911.00,0.0417
1910.50,0.0416
1910.00,0.0415
1909.50,0.0414
1909.00,0.0414
1908.50,0.0413
1908.00,0.0413
1907.50,0.0412
1907.00,0.0412
1906.50,0.0411
1906.00,0.0411
1905.50,0.0411
1905.00,0.0410
1904.50,0.0410
1904.00,0.0409
1903.50,0.0409
1903.00,0.0408
1902.50,0.0408
1902.00,0.0408
1901.50,0.0408
1901.00,0.0407
1900.50,0.0407
1900.00,0.0407
1899.50,0.0407
1899.00,0.0407
1898.50,0.0407
1898.00,0.0407
1897.50,0.0406
1897.00,0.0406
1896.50,0.0406
1896.00,0.0406
1895.50,0.0406
1895.00,0.0406
1894.50,0.0406
1894.00,0.0406
1893.50,0.0406
1893.00,0.0406
1892.50,0.0406
1892.00,0.0406
1891.50,0.0406
1891.00,0.0406
1890.50,0.0406
1890.00,0.0406
1889.50,0.0405
1889.00,0.0405
1888.50,0.0405
1888.00,0.0406
1887.50,0.0406
1887.00,0.0406
1886.50,0.0406
1886.00,0.0406
1885.50,0.0406
1885.00,0.0406
1884.50,0.0406
1884.00,0.0406
1883.50,0.0406
1883.00,0.0406
1882.50,0.0406
1882.00,0.0406
1881.50,0.0406
1881.00,0.0406
1880.50,0.0406
1880.00,0.0407
1879.50,0.0407
1879.00,0.0407
1878.50,0.0407
1878.00,0.0407
1877.50,0.0407
1877.00,0.0407
1876.50,0.0407
1876.00,0.0407
1875.50,0.0407
1875.00,0.0407
1874.50,0.0407
1874.00,0.0407
1873.50,0.0407
1873.00,0.0407
1872.50,0.0407
1872.00,0.0407
1871.50,0.0408
1871.00,0.0408
1870.50,0.0407
1870.00,0.0407
1869.50,0.0407
1869.00,0.0407
1868.50,0.0407
1868.00,0.0407
1867.50,0.0407
1867.00,0.0407
1866.50,0.0407
1866.00,0.0407
1865.50,0.0407
1865.00,0.0407
1864.50,0.0407
1864.00,0.0407
1863.50,0.0407
1863.00,0.0408
1862.50,0.0407
1862.00,0.0407
1861.50,0.0407
1861.00,0.0407
1860.50,0.0407
1860.00,0.0407
1859.50,0.0407
1859.00,0.0407
1858.50,0.0407
1858.00,0.0407
1857.50,0.0407
1857.00,0.0407
1856.50,0.0407
1856.00,0.0407
1855.50,0.0407
1855.00,0.0407
1854.50,0.0407
1854.00,0.0407
1853.50,0.0407
1853.00,0.0407
1852.50,0.0407
1852.00,0.0408
1851.50,0.0408
1851.00,0.0408
1850.50,0.0407
1850.00,0.0407
1849.50,0.0407
1849.00,0.0407
1848.50,0.0407
1848.00,0.0407
1847.50,0.0407
1847.00,0.0406
1846.50,0.0407
1846.00,0.0407
1845.50,0.0406
1845.00,0.0406
1844.50,0.0406
1844.00,0.0406
1843.50,0.0406
1843.00,0.0406
1842.50,0.0406
1842.00,0.0406
1841.50,0.0406
1841.00,0.0406
1840.50,0.0406
1840.00,0.0406
1839.50,0.0406
1839.00,0.0406
1838.50,0.0406
1838.00,0.0406
1837.50,0.0406
1837.00,0.0406
1836.50,0.0406
1836.00,0.0406
1835.50,0.0406
1835.00,0.0406
1834.50,0.0406
1834.00,0.0406
1833.50,0.0406
1833.00,0.0406
1832.50,0.0406
1832.00,0.0407
1831.50,0.0406
1831.00,0.0406
1830.50,0.0406
1830.00,0.0406
1829.50,0.0406
1829.00,0.0406
1828.50,0.0406
1828.00,0.0407
1827.50,0.0407
1827.00,0.0408
1826.50,0.0408
1826.00,0.0408
1825.50,0.0408
1825.00,0.0408
1824.50,0.0408
1824.00,0.0408
1823.50,0.0409
1823.00,0.0409
1822.50,0.0409
1822.00,0.0410
1821.50,0.0410
1821.00,0.0410
1820.50,0.0410
1820.00,0.0411
1819.50,0.0411
1819.00,0.0411
1818.50,0.0412
1818.00,0.0412
1817.50,0.0413
1817.00,0.0413
1816.50,0.0413
1816.00,0.0414
1815.50,0.0414
1815.00,0.0414
1814.50,0.0415
1814.00,0.0415
1813.50,0.0415
1813.00,0.0416
1812.50,0.0416
1812.00,0.0417
1811.50,0.0417
1811.00,0.0417
1810.50,0.0418
1810.00,0.0418
1809.50,0.0418
1809.00,0.0419
1808.50,0.0419
1808.00,0.0420
1807.50,0.0421
1807.00,0.0421
1806.50,0.0421
1806.00,0.0422
1805.50,0.0422
1805.00,0.0423
1804.50,0.0423
1804.00,0.0424
1803.50,0.0424
1803.00,0.0425
1802.50,0.0425
1802.00,0.0426
1801.50,0.0426
1801.00,0.0426
1800.50,0.0427
1800.00,0.0427
1799.50,0.0427
1799.00,0.0428
1798.50,0.0428
1798.00,0.0429
1797.50,0.0429
1797.00,0.0430
1796.50,0.0430
1796.00,0.0431
1795.50,0.0431
1795.00,0.0432
1794.50,0.0432
1794.00,0.0432
1793.50,0.0433
1793.00,0.0433
1792.50,0.0434
1792.00,0.0434
1791.50,0.0434
1791.00,0.0434
1790.50,0.0435
1790.00,0.0435
1789.50,0.0436
1789.00,0.0436
1788.50,0.0437
1788.00,0.0437
1787.50,0.0438
1787.00,0.0438
1786.50,0.0439
1786.00,0.0439
1785.50,0.0439
1785.00,0.0439
1784.50,0.0439
1784.00,0.0440
1783.50,0.0440
1783.00,0.0440
1782.50,0.0441
1782.00,0.0441
1781.50,0.0441
1781.00,0.0441
1780.50,0.0441
1780.00,0.0441
1779.50,0.0441
1779.00,0.0441
1778.50,0.0441
1778.00,0.0442
1777.50,0.0442
1777.00,0.0442
1776.50,0.0442
1776.00,0.0441
1775.50,0.0441
1775.00,0.0442
1774.50,0.0442
1774.00,0.0441
1773.50,0.0441
1773.00,0.0442
1772.50,0.0442
1772.00,0.0441
1771.50,0.0440
1771.00,0.0440
1770.50,0.0440
1770.00,0.0441
1769.50,0.0441
1769.00,0.0441
1768.50,0.0441
1768.00,0.0441
1767.50,0.0441
1767.00,0.0441
1766.50,0.0441
1766.00,0.0440
1765.50,0.0440
1765.00,0.0440
1764.50,0.0440
1764.00,0.0440
1763.50,0.0440
1763.00,0.0440
1762.50,0.0440
1762.00,0.0440
1761.50,0.0439
1761.00,0.0439
1760.50,0.0439
1760.00,0.0439
1759.50,0.0439
1759.00,0.0440
1758.50,0.0440
1758.00,0.0440
1757.50,0.0439
1757.00,0.0439
1756.50,0.0440
1756.00,0.0439
1755.50,0.0439
1755.00,0.0439
1754.50,0.0439
1754.00,0.0440
1753.50,0.0440
1753.00,0.0440
1752.50,0.0441
1752.00,0.0441
1751.50,0.0441
1751.00,0.0441
1750.50,0.0441
1750.00,0.0440
1749.50,0.0440
1749.00,0.0440
1748.50,0.0440
1748.00,0.0440
1747.50,0.0441
1747.00,0.0442
1746.50,0.0442
1746.00,0.0443
1745.50,0.0444
1745.00,0.0444
1744.50,0.0445
1744.00,0.0445
1743.50,0.0445
1743.00,0.0445
1742.50,0.0446
1742.00,0.0446
1741.50,0.0446
1741.00,0.0446
1740.50,0.0446
1740.00,0.0446
1739.50,0.0446
1739.00,0.0446
1738.50,0.0446
1738.00,0.0446
1737.50,0.0447
1737.00,0.0447
1736.50,0.0447
1736.00,0.0448
1735.50,0.0448
1735.00,0.0449
1734.50,0.0451
1734.00,0.0450
1733.50,0.0450
1733.00,0.0450
1732.50,0.0450
1732.00,0.0450
1731.50,0.0450
1731.00,0.0450
1730.50,0.0450
1730.00,0.0450
1729.50,0.0450
1729.00,0.0451
1728.50,0.0451
1728.00,0.0451
1727.50,0.0451
1727.00,0.0451
1726.50,0.0451
1726.00,0.0451
1725.50,0.0451
1725.00,0.0451
1724.50,0.0451
1724.00,0.0451
1723.50,0.0451
1723.00,0.0451
1722.50,0.0451
1722.00,0.0451
1721.50,0.0451
1721.00,0.0451
1720.50,0.0451
1720.00,0.0451
1719.50,0.0451
1719.00,0.0452
1718.50,0.0451
1718.00,0.0450
1717.50,0.0450
1717.00,0.0451
1716.50,0.0451
1716.00,0.0451
1715.50,0.0450
1715.00,0.0450
1714.50,0.0449
1714.00,0.0449
1713.50,0.0449
1713.00,0.0449
1712.50,0.0449
1712.00,0.0449
1711.50,0.0449
1711.00,0.0449
1710.50,0.0449
1710.00,0.0449
1709.50,0.0449
1709.00,0.0449
1708.50,0.0449
1708.00,0.0449
1707.50,0.0448
1707.00,0.0448
1706.50,0.0448
1706.00,0.0447
1705.50,0.0447
1705.00,0.0447
1704.50,0.0447
1704.00,0.0448
1703.50,0.0448
1703.00,0.0449
1702.50,0.0449
1702.00,0.0449
1701.50,0.0449
1701.00,0.0450
1700.50,0.0451
1700.00,0.0448
1699.50,0.0448
1699.00,0.0449
1698.50,0.0449
1698.00,0.0449
1697.50,0.0449
1697.00,0.0449
1696.50,0.0449
1696.00,0.0450
1695.50,0.0450
1695.00,0.0450
1694.50,0.0450
1694.00,0.0450
1693.50,0.0450
1693.00,0.0450
1692.50,0.0451
1692.00,0.0451
1691.50,0.0451
1691.00,0.0451
1690.50,0.0451
1690.00,0.0451
1689.50,0.0451
1689.00,0.0451
1688.50,0.0452
1688.00,0.0452
1687.50,0.0452
1687.00,0.0452
1686.50,0.0453
1686.00,0.0453
1685.50,0.0453
1685.00,0.0454
1684.50,0.0454
1684.00,0.0452
1683.50,0.0451
1683.00,0.0452
1682.50,0.0453
1682.00,0.0454
1681.50,0.0454
1681.00,0.0455
1680.50,0.0455
1680.00,0.0456
1679.50,0.0456
1679.00,0.0456
1678.50,0.0456
1678.00,0.0457
1677.50,0.0457
1677.00,0.0458
1676.50,0.0458
1676.00,0.0459
1675.50,0.0459
1675.00,0.0459
1674.50,0.0459
1674.00,0.0460
1673.50,0.0460
1673.00,0.0460
1672.50,0.0461
1672.00,0.0461
1671.50,0.0462
1671.00,0.0462
1670.50,0.0462
1670.00,0.0463
1669.50,0.0463
1669.00,0.0464
1668.50,0.0464
1668.00,0.0464
1667.50,0.0465
1667.00,0.0466
1666.50,0.0466
1666.00,0.0467
1665.50,0.0467
1665.00,0.0468
1664.50,0.0468
1664.00,0.0468
1663.50,0.0469
1663.00,0.0469
1662.50,0.0469
1662.00,0.0470
1661.50,0.0471
1661.00,0.0471
1660.50,0.0472
1660.00,0.0472
1659.50,0.0473
1659.00,0.0474
1658.50,0.0474
1658.00,0.0474
1657.50,0.0475
1657.00,0.0475
1656.50,0.0476
1656.00,0.0476
1655.50,0.0476
1655.00,0.0477
1654.50,0.0477
1654.00,0.0477
1653.50,0.0478
1653.00,0.0478
1652.50,0.0478
1652.00,0.0479
1651.50,0.0480
1651.00,0.0480
1650.50,0.0480
1650.00,0.0481
1649.50,0.0481
1649.00,0.0481
1648.50,0.0482
1648.00,0.0482
1647.50,0.0482
1647.00,0.0482
1646.50,0.0482
1646.00,0.0483
1645.50,0.0484
1645.00,0.0485
1644.50,0.0486
1644.00,0.0485
1643.50,0.0486
1643.00,0.0486
1642.50,0.0487
1642.00,0.0487
1641.50,0.0488
1641.00,0.0488
1640.50,0.0488
1640.00,0.0489
1639.50,0.0489
1639.00,0.0489
1638.50,0.0490
1638.00,0.0490
1637.50,0.0490
1637.00,0.0491
1636.50,0.0491
1636.00,0.0491
1635.50,0.0492
1635.00,0.0491
1634.50,0.0492
1634.00,0.0492
1633.50,0.0493
1633.00,0.0493
1632.50,0.0494
1632.00,0.0495
1631.50,0.0495
1631.00,0.0496
1630.50,0.0496
1630.00,0.0497
1629.50,0.0497
1629.00,0.0497
1628.50,0.0497
1628.00,0.0497
1627.50,0.0498
1627.00,0.0498
1626.50,0.0499
1626.00,0.0500
1625.50,0.0501
1625.00,0.0501
1624.50,0.0501
1624.00,0.0502
1623.50,0.0502
1623.00,0.0502
1622.50,0.0503
1622.00,0.0504
1621.50,0.0504
1621.00,0.0505
1620.50,0.0506
1620.00,0.0506
1619.50,0.0507
1619.00,0.0508
1618.50,0.0508
1618.00,0.0508
1617.50,0.0509
1617.00,0.0510
1616.50,0.0510
1616.00,0.0511
1615.50,0.0512
1615.00,0.0512
1614.50,0.0512
1614.00,0.0513
1613.50,0.0514
1613.00,0.0514
1612.50,0.0515
1612.00,0.0515
1611.50,0.0516
1611.00,0.0516
1610.50,0.0517
1610.00,0.0517
1609.50,0.0518
1609.00,0.0518
1608.50,0.0518
1608.00,0.0519
1607.50,0.0520
1607.00,0.0520
1606.50,0.0521
1606.00,0.0521
1605.50,0.0522
1605.00,0.0523
1604.50,0.0523
1604.00,0.0524
1603.50,0.0525
1603.00,0.0526
1602.50,0.0527
1602.00,0.0528
1601.50,0.0530
1601.00,0.0532
1600.50,0.0535
1600.00,0.0538
1599.50,0.0541
1599.00,0.0546
1598.50,0.0550
1598.00,0.0554
1597.50,0.0557
1597.00,0.0558
1596.50,0.0558
1596.00,0.0556
1595.50,0.0552
1595.00,0.0548
1594.50,0.0543
1594.00,0.0538
1593.50,0.0534
1593.00,0.0532
1592.50,0.0529
1592.00,0.0527
1591.50,0.0525
1591.00,0.0524
1590.50,0.0522
1590.00,0.0521
1589.50,0.0520
1589.00,0.0519
1588.50,0.0518
1588.00,0.0517
1587.50,0.0516
1587.00,0.0515
1586.50,0.0514
1586.00,0.0514
1585.50,0.0513
1585.00,0.0512
1584.50,0.0512
1584.00,0.0511
1583.50,0.0511
1583.00,0.0510
1582.50,0.0509
1582.00,0.0509
1581.50,0.0508
1581.00,0.0508
1580.50,0.0507
1580.00,0.0506
1579.50,0.0506
1579.00,0.0505
1578.50,0.0505
1578.00,0.0504
1577.50,0.0504
1577.00,0.0504
1576.50,0.0503
1576.00,0.0502
1575.50,0.0501
1575.00,0.0500
1574.50,0.0499
1574.00,0.0499
1573.50,0.0498
1573.00,0.0498
1572.50,0.0497
1572.00,0.0497
1571.50,0.0497
1571.00,0.0497
1570.50,0.0496
1570.00,0.0495
1569.50,0.0494
1569.00,0.0492
1568.50,0.0492
1568.00,0.0492
1567.50,0.0492
1567.00,0.0492
1566.50,0.0492
1566.00,0.0492
1565.50,0.0491
1565.00,0.0491
1564.50,0.0490
1564.00,0.0490
1563.50,0.0490
1563.00,0.0490
1562.50,0.0490
1562.00,0.0490
1561.50,0.0489
1561.00,0.0490
1560.50,0.0491
1560.00,0.0492
1559.50,0.0491
1559.00,0.0489
1558.50,0.0487
1558.00,0.0486
1557.50,0.0487
1557.00,0.0488
1556.50,0.0489
1556.00,0.0488
1555.50,0.0488
1555.00,0.0489
1554.50,0.0489
1554.00,0.0489
1553.50,0.0489
1553.00,0.0489
1552.50,0.0488
1552.00,0.0488
1551.50,0.0488
1551.00,0.0488
1550.50,0.0489
1550.00,0.0489
1549.50,0.0488
1549.00,0.0488
1548.50,0.0488
1548.00,0.0488
1547.50,0.0489
1547.00,0.0489
1546.50,0.0489
1546.00,0.0490
1545.50,0.0490
1545.00,0.0490
1544.50,0.0490
1544.00,0.0489
1543.50,0.0489
1543.00,0.0489
1542.50,0.0489
1542.00,0.0490
1541.50,0.0490
1541.00,0.0490
1540.50,0.0491
1540.00,0.0490
1539.50,0.0490
1539.00,0.0489
1538.50,0.0489
1538.00,0.0490
1537.50,0.0490
1537.00,0.0490
1536.50,0.0490
1536.00,0.0491
1535.50,0.0491
1535.00,0.0491
1534.50,0.0491
1534.00,0.0491
1533.50,0.0490
1533.00,0.0490
1532.50,0.0490
1532.00,0.0491
1531.50,0.0491
1531.00,0.0491
1530.50,0.0491
1530.00,0.0492
1529.50,0.0492
1529.00,0.0492
1528.50,0.0492
1528.00,0.0492
1527.50,0.0492
1527.00,0.0492
1526.50,0.0492
1526.00,0.0493
1525.50,0.0493
1525.00,0.0493
1524.50,0.0493
1524.00,0.0493
1523.50,0.0492
1523.00,0.0492
1522.50,0.0492
1522.00,0.0492
1521.50,0.0493
1521.00,0.0492
1520.50,0.0492
1520.00,0.0492
1519.50,0.0492
1519.00,0.0492
1518.50,0.0492
1518.00,0.0492
1517.50,0.0492
1517.00,0.0491
1516.50,0.0491
1516.00,0.0491
1515.50,0.0491
1515.00,0.0492
1514.50,0.0492
1514.00,0.0492
1513.50,0.0492
1513.00,0.0492
1512.50,0.0492
1512.00,0.0492
1511.50,0.0492
1511.00,0.0492
1510.50,0.0492
1510.00,0.0492
1509.50,0.0493
1509.00,0.0493
1508.50,0.0493
1508.00,0.0494
1507.50,0.0495
1507.00,0.0494
1506.50,0.0492
1506.00,0.0491
1505.50,0.0491
1505.00,0.0492
1504.50,0.0492
1504.00,0.0492
1503.50,0.0492
1503.00,0.0492
1502.50,0.0493
1502.00,0.0493
1501.50,0.0493
1501.00,0.0493
1500.50,0.0493
1500.00,0.0493
1499.50,0.0494
1499.00,0.0494
1498.50,0.0494
1498.00,0.0494
1497.50,0.0494
1497.00,0.0495
1496.50,0.0496
1496.00,0.0497
1495.50,0.0498
1495.00,0.0498
1494.50,0.0498
1494.00,0.0499
1493.50,0.0500
1493.00,0.0502
1492.50,0.0503
1492.00,0.0504
1491.50,0.0505
1491.00,0.0506
1490.50,0.0507
1490.00,0.0509
1489.50,0.0510
1489.00,0.0512
1488.50,0.0514
1488.00,0.0515
1487.50,0.0516
1487.00,0.0517
1486.50,0.0518
1486.00,0.0519
1485.50,0.0520
1485.00,0.0521
1484.50,0.0521
1484.00,0.0522
1483.50,0.0523
1483.00,0.0524
1482.50,0.0525
1482.00,0.0525
1481.50,0.0526
1481.00,0.0526
1480.50,0.0527
1480.00,0.0527
1479.50,0.0528
1479.00,0.0528
1478.50,0.0528
1478.00,0.0529
1477.50,0.0529
1477.00,0.0530
1476.50,0.0530
1476.00,0.0530
1475.50,0.0531
1475.00,0.0532
1474.50,0.0532
1474.00,0.0534
1473.50,0.0535
1473.00,0.0536
1472.50,0.0537
1472.00,0.0539
1471.50,0.0540
1471.00,0.0542
1470.50,0.0544
1470.00,0.0546
1469.50,0.0548
1469.00,0.0551
1468.50,0.0554
1468.00,0.0557
1467.50,0.0560
1467.00,0.0563
1466.50,0.0565
1466.00,0.0568
1465.50,0.0572
1465.00,0.0576
1464.50,0.0580
1464.00,0.0584
1463.50,0.0588
1463.00,0.0592
1462.50,0.0596
1462.00,0.0601
1461.50,0.0606
1461.00,0.0611
1460.50,0.0615
1460.00,0.0620
1459.50,0.0625
1459.00,0.0630
1458.50,0.0635
1458.00,0.0640
1457.50,0.0646
1457.00,0.0653
1456.50,0.0660
1456.00,0.0664
1455.50,0.0668
1455.00,0.0672
1454.50,0.0677
1454.00,0.0682
1453.50,0.0688
1453.00,0.0694
1452.50,0.0701
1452.00,0.0708
1451.50,0.0715
1451.00,0.0722
1450.50,0.0729
1450.00,0.0735
1449.50,0.0742
1449.00,0.0749
1448.50,0.0755
1448.00,0.0761
1447.50,0.0767
1447.00,0.0771
1446.50,0.0774
1446.00,0.0776
1445.50,0.0777
1445.00,0.0777
1444.50,0.0776
1444.00,0.0774
1443.50,0.0771
1443.00,0.0768
1442.50,0.0763
1442.00,0.0758
1441.50,0.0753
1441.00,0.0747
1440.50,0.0742
1440.00,0.0736
1439.50,0.0731
1439.00,0.0726
1438.50,0.0722
1438.00,0.0718
1437.50,0.0715
1437.00,0.0711
1436.50,0.0705
1436.00,0.0700
1435.50,0.0698
1435.00,0.0697
1434.50,0.0696
1434.00,0.0695
1433.50,0.0695
1433.00,0.0696
1432.50,0.0697
1432.00,0.0698
1431.50,0.0700
1431.00,0.0703
1430.50,0.0706
1430.00,0.0710
1429.50,0.0716
1429.00,0.0722
1428.50,0.0728
1428.00,0.0734
1427.50,0.0742
1427.00,0.0751
1426.50,0.0761
1426.00,0.0771
1425.50,0.0783
1425.00,0.0795
1424.50,0.0810
1424.00,0.0827
1423.50,0.0845
1423.00,0.0864
1422.50,0.0882
1422.00,0.0901
1421.50,0.0921
1421.00,0.0940
1420.50,0.0960
1420.00,0.0983
1419.50,0.1016
1419.00,0.1049
1418.50,0.1074
1418.00,0.1093
1417.50,0.1112
1417.00,0.1132
1416.50,0.1152
1416.00,0.1170
1415.50,0.1186
1415.00,0.1200
1414.50,0.1212
1414.00,0.1223
1413.50,0.1231
1413.00,0.1236
1412.50,0.1240
1412.00,0.1242
1411.50,0.1243
1411.00,0.1242
1410.50,0.1239
1410.00,0.1236
1409.50,0.1231
1409.00,0.1224
1408.50,0.1217
1408.00,0.1208
1407.50,0.1199
1407.00,0.1190
1406.50,0.1180
1406.00,0.1171
1405.50,0.1160
1405.00,0.1149
1404.50,0.1138
1404.00,0.1130
1403.50,0.1123
1403.00,0.1116
1402.50,0.1109
1402.00,0.1102
1401.50,0.1095
1401.00,0.1088
1400.50,0.1080
1400.00,0.1071
1399.50,0.1058
1399.00,0.1043
1398.50,0.1027
1398.00,0.1012
1397.50,0.0996
1397.00,0.0980
1396.50,0.0963
1396.00,0.0946
1395.50,0.0927
1395.00,0.0906
1394.50,0.0884
1394.00,0.0865
1393.50,0.0849
1393.00,0.0835
1392.50,0.0822
1392.00,0.0809
1391.50,0.0796
1391.00,0.0784
1390.50,0.0773
1390.00,0.0763
1389.50,0.0755
1389.00,0.0747
1388.50,0.0740
1388.00,0.0733
1387.50,0.0726
1387.00,0.0719
1386.50,0.0713
1386.00,0.0709
1385.50,0.0705
1385.00,0.0700
1384.50,0.0697
1384.00,0.0693
1383.50,0.0690
1383.00,0.0686
1382.50,0.0682
1382.00,0.0679
1381.50,0.0676
1381.00,0.0673
1380.50,0.0670
1380.00,0.0667
1379.50,0.0665
1379.00,0.0663
1378.50,0.0661
1378.00,0.0659
1377.50,0.0658
1377.00,0.0656
1376.50,0.0655
1376.00,0.0654
1375.50,0.0654
1375.00,0.0653
1374.50,0.0652
1374.00,0.0652
1373.50,0.0651
1373.00,0.0651
1372.50,0.0651
1372.00,0.0650
1371.50,0.0649
1371.00,0.0648
1370.50,0.0647
1370.00,0.0645
1369.50,0.0644
1369.00,0.0641
1368.50,0.0640
1368.00,0.0638
1367.50,0.0637
1367.00,0.0636
1366.50,0.0635
1366.00,0.0634
1365.50,0.0634
1365.00,0.0633
1364.50,0.0632
1364.00,0.0632
1363.50,0.0632
1363.00,0.0631
1362.50,0.0630
1362.00,0.0630
1361.50,0.0629
1361.00,0.0629
1360.50,0.0629
1360.00,0.0629
1359.50,0.0629
1359.00,0.0629
1358.50,0.0628
1358.00,0.0628
1357.50,0.0628
1357.00,0.0628
1356.50,0.0628
1356.00,0.0628
1355.50,0.0628
1355.00,0.0628
1354.50,0.0629
1354.00,0.0629
1353.50,0.0629
1353.00,0.0629
1352.50,0.0630
1352.00,0.0630
1351.50,0.0630
1351.00,0.0631
1350.50,0.0631
1350.00,0.0632
1349.50,0.0632
1349.00,0.0633
1348.50,0.0633
1348.00,0.0634
1347.50,0.0635
1347.00,0.0635
1346.50,0.0636
1346.00,0.0636
1345.50,0.0637
1345.00,0.0638
1344.50,0.0638
1344.00,0.0638
1343.50,0.0639
1343.00,0.0639
1342.50,0.0639
1342.00,0.0640
1341.50,0.0640
1341.00,0.0641
1340.50,0.0641
1340.00,0.0641
1339.50,0.0641
1339.00,0.0641
1338.50,0.0642
1338.00,0.0642
1337.50,0.0643
1337.00,0.0643
1336.50,0.0644
1336.00,0.0645
1335.50,0.0646
1335.00,0.0647
1334.50,0.0649
1334.00,0.0650
1333.50,0.0652
1333.00,0.0653
1332.50,0.0655
1332.00,0.0656
1331.50,0.0658
1331.00,0.0659
1330.50,0.0661
1330.00,0.0663
1329.50,0.0665
1329.00,0.0667
1328.50,0.0669
1328.00,0.0671
1327.50,0.0673
1327.00,0.0675
1326.50,0.0678
1326.00,0.0680
1325.50,0.0682
1325.00,0.0685
1324.50,0.0687
1324.00,0.0690
1323.50,0.0693
1323.00,0.0696
1322.50,0.0698
1322.00,0.0701
1321.50,0.0704
1321.00,0.0707
1320.50,0.0710
1320.00,0.0713
1319.50,0.0716
1319.00,0.0720
1318.50,0.0723
1318.00,0.0727
1317.50,0.0730
1317.00,0.0734
1316.50,0.0737
1316.00,0.0741
1315.50,0.0744
1315.00,0.0748
1314.50,0.0752
1314.00,0.0756
1313.50,0.0759
1313.00,0.0764
1312.50,0.0768
1312.00,0.0772
1311.50,0.0776
1311.00,0.0780
1310.50,0.0784
1310.00,0.0789
1309.50,0.0793
1309.00,0.0798
1308.50,0.0802
1308.00,0.0807
1307.50,0.0811
1307.00,0.0816
1306.50,0.0821
1306.00,0.0826
1305.50,0.0831
1305.00,0.0836
1304.50,0.0841
1304.00,0.0846
1303.50,0.0852
1303.00,0.0857
1302.50,0.0863
1302.00,0.0869
1301.50,0.0875
1301.00,0.0881
1300.50,0.0888
1300.00,0.0894
1299.50,0.0901
1299.00,0.0908
1298.50,0.0916
1298.00,0.0923
1297.50,0.0931
1297.00,0.0939
1296.50,0.0947
1296.00,0.0956
1295.50,0.0965
1295.00,0.0974
1294.50,0.0983
1294.00,0.0993
1293.50,0.1003
1293.00,0.1013
1292.50,0.1024
1292.00,0.1035
1291.50,0.1046
1291.00,0.1058
1290.50,0.1070
1290.00,0.1083
1289.50,0.1096
1289.00,0.1109
1288.50,0.1123
1288.00,0.1138
1287.50,0.1153
1287.00,0.1169
1286.50,0.1186
1286.00,0.1203
1285.50,0.1221
1285.00,0.1241
1284.50,0.1261
1284.00,0.1283
1283.50,0.1307
1283.00,0.1331
1282.50,0.1358
1282.00,0.1386
1281.50,0.1417
1281.00,0.1449
1280.50,0.1485
1280.00,0.1523
1279.50,0.1565
1279.00,0.1610
1278.50,0.1659
1278.00,0.1713
1277.50,0.1771
1277.00,0.1836
1276.50,0.1907
1276.00,0.1986
1275.50,0.2073
1275.00,0.2169
1274.50,0.2276
1274.00,0.2396
1273.50,0.2529
1273.00,0.2680
1272.50,0.2851
1272.00,0.3047
1271.50,0.3270
1271.00,0.3526
1270.50,0.3817
1270.00,0.4152
1269.50,0.4535
1269.00,0.4971
1268.50,0.5463
1268.00,0.6007
1267.50,0.6604
1267.00,0.7245
1266.50,0.7916
1266.00,0.8598
1265.50,0.9276
1265.00,0.9930
1264.50,1.0532
1264.00,1.1061
1263.50,1.1511
1263.00,1.1877
1262.50,1.2138
1262.00,1.2288
1261.50,1.2345
1261.00,1.2318
1260.50,1.2200
1260.00,1.2000
1259.50,1.1743
1259.00,1.1440
1258.50,1.1088
1258.00,1.0695
1257.50,1.0284
1257.00,0.9868
1256.50,0.9448
1256.00,0.9031
1255.50,0.8630
1255.00,0.8248
1254.50,0.7875
1254.00,0.7506
1253.50,0.7141
1253.00,0.6775
1252.50,0.6401
1252.00,0.6018
1251.50,0.5634
1251.00,0.5255
1250.50,0.4887
1250.00,0.4536
1249.50,0.4211
1249.00,0.3913
1248.50,0.3644
1248.00,0.3402
1247.50,0.3187
1247.00,0.2998
1246.50,0.2831
1246.00,0.2684
1245.50,0.2556
1245.00,0.2443
1244.50,0.2344
1244.00,0.2255
1243.50,0.2177
1243.00,0.2107
1242.50,0.2045
1242.00,0.1990
1241.50,0.1940
1241.00,0.1896
1240.50,0.1857
1240.00,0.1822
1239.50,0.1791
1239.00,0.1763
1238.50,0.1738
1238.00,0.1715
1237.50,0.1695
1237.00,0.1678
1236.50,0.1662
1236.00,0.1648
1235.50,0.1636
1235.00,0.1626
1234.50,0.1617
1234.00,0.1610
1233.50,0.1604
1233.00,0.1600
1232.50,0.1596
1232.00,0.1594
1231.50,0.1593
1231.00,0.1594
1230.50,0.1595
1230.00,0.1597
1229.50,0.1600
1229.00,0.1605
1228.50,0.1610
1228.00,0.1616
1227.50,0.1622
1227.00,0.1630
1226.50,0.1639
1226.00,0.1648
1225.50,0.1659
1225.00,0.1670
1224.50,0.1682
1224.00,0.1694
1223.50,0.1708
1223.00,0.1722
1222.50,0.1737
1222.00,0.1752
1221.50,0.1768
1221.00,0.1785
1220.50,0.1803
1220.00,0.1821
1219.50,0.1840
1219.00,0.1859
1218.50,0.1879
1218.00,0.1899
1217.50,0.1920
1217.00,0.1941
1216.50,0.1963
1216.00,0.1985
1215.50,0.2007
1215.00,0.2030
1214.50,0.2053
1214.00,0.2076
1213.50,0.2099
1213.00,0.2123
1212.50,0.2146
1212.00,0.2170
1211.50,0.2194
1211.00,0.2218
1210.50,0.2242
1210.00,0.2266
1209.50,0.2289
1209.00,0.2313
1208.50,0.2337
1208.00,0.2360
1207.50,0.2384
1207.00,0.2407
1206.50,0.2430
1206.00,0.2452
1205.50,0.2475
1205.00,0.2497
1204.50,0.2519
1204.00,0.2540
1203.50,0.2561
1203.00,0.2582
1202.50,0.2602
1202.00,0.2622
1201.50,0.2641
1201.00,0.2661
1200.50,0.2679
1200.00,0.2697
1199.50,0.2715
1199.00,0.2733
1198.50,0.2750
1198.00,0.2766
1197.50,0.2783
1197.00,0.2799
1196.50,0.2815
1196.00,0.2830
1195.50,0.2845
1195.00,0.2860
1194.50,0.2874
1194.00,0.2887
1193.50,0.2900
1193.00,0.2914
1192.50,0.2926
1192.00,0.2938
1191.50,0.2950
1191.00,0.2962
1190.50,0.2974
1190.00,0.2985
1189.50,0.2996
1189.00,0.3007
1188.50,0.3018
1188.00,0.3028
1187.50,0.3038
1187.00,0.3049
1186.50,0.3059
1186.00,0.3068
1185.50,0.3078
1185.00,0.3088
1184.50,0.3097
1184.00,0.3106
1183.50,0.3115
1183.00,0.3125
1182.50,0.3134
1182.00,0.3143
1181.50,0.3152
1181.00,0.3162
1180.50,0.3172
1180.00,0.3181
1179.50,0.3190
1179.00,0.3200
1178.50,0.3210
1178.00,0.3220
1177.50,0.3230
1177.00,0.3241
1176.50,0.3251
1176.00,0.3262
1175.50,0.3272
1175.00,0.3284
1174.50,0.3295
1174.00,0.3305
1173.50,0.3317
1173.00,0.3329
1172.50,0.3340
1172.00,0.3351
1171.50,0.3362
1171.00,0.3373
1170.50,0.3384
1170.00,0.3395
1169.50,0.3406
1169.00,0.3418
1168.50,0.3430
1168.00,0.3442
1167.50,0.3455
1167.00,0.3468
1166.50,0.3481
1166.00,0.3494
1165.50,0.3508
1165.00,0.3523
1164.50,0.3538
1164.00,0.3552
1163.50,0.3568
1163.00,0.3584
1162.50,0.3600
1162.00,0.3616
1161.50,0.3633
1161.00,0.3650
1160.50,0.3668
1160.00,0.3686
1159.50,0.3705
1159.00,0.3725
1158.50,0.3745
1158.00,0.3765
1157.50,0.3786
1157.00,0.3808
1156.50,0.3830
1156.00,0.3853
1155.50,0.3876
1155.00,0.3900
1154.50,0.3925
1154.00,0.3949
1153.50,0.3975
1153.00,0.4002
1152.50,0.4029
1152.00,0.4057
1151.50,0.4086
1151.00,0.4116
1150.50,0.4147
1150.00,0.4178
1149.50,0.4210
1149.00,0.4244
1148.50,0.4278
1148.00,0.4313
1147.50,0.4349
1147.00,0.4387
1146.50,0.4426
1146.00,0.4465
1145.50,0.4505
1145.00,0.4548
1144.50,0.4592
1144.00,0.4635
1143.50,0.4681
1143.00,0.4729
1142.50,0.4778
1142.00,0.4828
1141.50,0.4879
1141.00,0.4933
1140.50,0.4988
1140.00,0.5043
1139.50,0.5100
1139.00,0.5160
1138.50,0.5220
1138.00,0.5281
1137.50,0.5344
1137.00,0.5410
1136.50,0.5477
1136.00,0.5545
1135.50,0.5615
1135.00,0.5689
1134.50,0.5764
1134.00,0.5841
1133.50,0.5921
1133.00,0.6005
1132.50,0.6092
1132.00,0.6179
1131.50,0.6271
1131.00,0.6367
1130.50,0.6465
1130.00,0.6565
1129.50,0.6669
1129.00,0.6778
1128.50,0.6889
1128.00,0.7001
1127.50,0.7118
1127.00,0.7240
1126.50,0.7365
1126.00,0.7491
1125.50,0.7621
1125.00,0.7758
1124.50,0.7896
1124.00,0.8035
1123.50,0.8179
1123.00,0.8329
1122.50,0.8480
1122.00,0.8631
1121.50,0.8787
1121.00,0.8950
1120.50,0.9113
1120.00,0.9274
1119.50,0.9440
1119.00,0.9612
1118.50,0.9784
1118.00,0.9955
1117.50,1.0130
1117.00,1.0311
1116.50,1.0491
1116.00,1.0666
1115.50,1.0845
1115.00,1.1030
1114.50,1.1213
1114.00,1.1391
1113.50,1.1573
1113.00,1.1761
1112.50,1.1944
1112.00,1.2119
1111.50,1.2296
1111.00,1.2480
1110.50,1.2658
1110.00,1.2828
1109.50,1.3003
1109.00,1.3185
1108.50,1.3359
1108.00,1.3518
1107.50,1.3681
1107.00,1.3851
1106.50,1.4011
1106.00,1.4157
1105.50,1.4308
1105.00,1.4468
1104.50,1.4617
1104.00,1.4751
1103.50,1.4890
1103.00,1.5040
1102.50,1.5177
1102.00,1.5294
1101.50,1.5415
1101.00,1.5548
1100.50,1.5666
1100.00,1.5760
1099.50,1.5858
1099.00,1.5970
1098.50,1.6066
1098.00,1.6142
1097.50,1.6225
1097.00,1.6323
1096.50,1.6404
1096.00,1.6459
1095.50,1.6521
1095.00,1.6598
1094.50,1.6655
1094.00,1.6686
1093.50,1.6729
1093.00,1.6792
1092.50,1.6836
1092.00,1.6850
1091.50,1.6873
1091.00,1.6915
1090.50,1.6939
1090.00,1.6936
1089.50,1.6942
1089.00,1.6965
1088.50,1.6971
1088.00,1.6952
1087.50,1.6945
1087.00,1.6959
1086.50,1.6953
1086.00,1.6921
1085.50,1.6899
1085.00,1.6896
1084.50,1.6877
1084.00,1.6834
1083.50,1.6803
1083.00,1.6792
1082.50,1.6767
1082.00,1.6720
1081.50,1.6684
1081.00,1.6665
1080.50,1.6628
1080.00,1.6566
1079.50,1.6516
1079.00,1.6486
1078.50,1.6445
1078.00,1.6383
1077.50,1.6332
1077.00,1.6298
1076.50,1.6251
1076.00,1.6185
1075.50,1.6129
1075.00,1.6090
1074.50,1.6036
1074.00,1.5964
1073.50,1.5905
1073.00,1.5865
1072.50,1.5815
1072.00,1.5746
1071.50,1.5687
1071.00,1.5645
1070.50,1.5594
1070.00,1.5528
1069.50,1.5471
1069.00,1.5428
1068.50,1.5374
1068.00,1.5305
1067.50,1.5247
1067.00,1.5204
1066.50,1.5150
1066.00,1.5079
1065.50,1.5019
1065.00,1.4974
1064.50,1.4925
1064.00,1.4862
1063.50,1.4805
1063.00,1.4759
1062.50,1.4704
1062.00,1.4638
1061.50,1.4581
1061.00,1.4537
1060.50,1.4487
1060.00,1.4424
1059.50,1.4367
1059.00,1.4321
1058.50,1.4271
1058.00,1.4213
1057.50,1.4165
1057.00,1.4129
1056.50,1.4085
1056.00,1.4029
1055.50,1.3981
1055.00,1.3945
1054.50,1.3902
1054.00,1.3848
1053.50,1.3800
1053.00,1.3766
1052.50,1.3727
1052.00,1.3680
1051.50,1.3642
1051.00,1.3616
1050.50,1.3585
1050.00,1.3544
1049.50,1.3511
1049.00,1.3490
1048.50,1.3465
1048.00,1.3432
1047.50,1.3408
1047.00,1.3396
1046.50,1.3379
1046.00,1.3354
1045.50,1.3337
1045.00,1.3333
1044.50,1.3326
1044.00,1.3312
1043.50,1.3305
1043.00,1.3307
1042.50,1.3305
1042.00,1.3296
1041.50,1.3295
1041.00,1.3303
1040.50,1.3308
1040.00,1.3305
1039.50,1.3310
1039.00,1.3325
1038.50,1.3336
1038.00,1.3341
1037.50,1.3351
1037.00,1.3370
1036.50,1.3386
1036.00,1.3396
1035.50,1.3414
1035.00,1.3443
1034.50,1.3467
1034.00,1.3484
1033.50,1.3506
1033.00,1.3535
1032.50,1.3559
1032.00,1.3577
1031.50,1.3602
1031.00,1.3637
1030.50,1.3668
1030.00,1.3691
1029.50,1.3719
1029.00,1.3755
1028.50,1.3785
1028.00,1.3806
1027.50,1.3833
1027.00,1.3870
1026.50,1.3900
1026.00,1.3921
1025.50,1.3944
1025.00,1.3974
1024.50,1.3998
1024.00,1.4011
1023.50,1.4026
1023.00,1.4048
1022.50,1.4061
1022.00,1.4061
1021.50,1.4060
1021.00,1.4063
1020.50,1.4056
1020.00,1.4033
1019.50,1.4007
1019.00,1.3981
1018.50,1.3940
1018.00,1.3880
1017.50,1.3815
1017.00,1.3745
1016.50,1.3658
1016.00,1.3550
1015.50,1.3433
1015.00,1.3310
1014.50,1.3169
1014.00,1.3009
1013.50,1.2843
1013.00,1.2674
1012.50,1.2490
1012.00,1.2290
1011.50,1.2086
1011.00,1.1880
1010.50,1.1668
1010.00,1.1449
1009.50,1.1231
1009.00,1.1016
1008.50,1.0799
1008.00,1.0580
1007.50,1.0367
1007.00,1.0164
1006.50,0.9964
1006.00,0.9767
1005.50,0.9577
1005.00,0.9396
1004.50,0.9220
1004.00,0.9048
1003.50,0.8884
1003.00,0.8729
1002.50,0.8581
1002.00,0.8437
1001.50,0.8302
1001.00,0.8176
1000.50,0.8055
1000.00,0.7939
999.50,0.7831
999.00,0.7731
998.50,0.7636
998.00,0.7544
997.50,0.7459
997.00,0.7381
996.50,0.7307
996.00,0.7237
995.50,0.7171
995.00,0.7110
994.50,0.7053
994.00,0.6998
993.50,0.6947
993.00,0.6901
992.50,0.6857
992.00,0.6815
991.50,0.6777
991.00,0.6742
990.50,0.6710
990.00,0.6679
989.50,0.6650
989.00,0.6625
988.50,0.6601
988.00,0.6578
987.50,0.6557
987.00,0.6540
986.50,0.6523
986.00,0.6507
985.50,0.6494
985.00,0.6484
984.50,0.6474
984.00,0.6463
983.50,0.6455
983.00,0.6449
982.50,0.6444
982.00,0.6439
981.50,0.6437
981.00,0.6436
980.50,0.6435
980.00,0.6435
979.50,0.6436
979.00,0.6439
978.50,0.6444
978.00,0.6448
977.50,0.6453
977.00,0.6459
976.50,0.6466
976.00,0.6473
975.50,0.6482
975.00,0.6493
974.50,0.6504
974.00,0.6514
973.50,0.6526
973.00,0.6539
972.50,0.6552
972.00,0.6566
971.50,0.6580
971.00,0.6597
970.50,0.6613
970.00,0.6629
969.50,0.6645
969.00,0.6664
968.50,0.6683
968.00,0.6701
967.50,0.6721
967.00,0.6742
966.50,0.6763
966.00,0.6783
965.50,0.6804
965.00,0.6827
964.50,0.6851
964.00,0.6873
963.50,0.6898
963.00,0.6924
962.50,0.6950
962.00,0.6976
961.50,0.7003
961.00,0.7031
960.50,0.7060
960.00,0.7087
959.50,0.7115
959.00,0.7144
958.50,0.7173
958.00,0.7200
957.50,0.7227
957.00,0.7257
956.50,0.7285
956.00,0.7312
955.50,0.7340
955.00,0.7368
954.50,0.7395
954.00,0.7421
953.50,0.7445
953.00,0.7471
952.50,0.7496
952.00,0.7520
951.50,0.7545
951.00,0.7573
950.50,0.7600
950.00,0.7627
949.50,0.7654
949.00,0.7684
948.50,0.7714
948.00,0.7744
947.50,0.7775
947.00,0.7808
946.50,0.7841
946.00,0.7872
945.50,0.7906
945.00,0.7941
944.50,0.7978
944.00,0.8013
943.50,0.8049
943.00,0.8087
942.50,0.8123
942.00,0.8159
941.50,0.8197
941.00,0.8237
940.50,0.8277
940.00,0.8316
939.50,0.8357
939.00,0.8398
938.50,0.8439
938.00,0.8479
937.50,0.8520
937.00,0.8563
936.50,0.8606
936.00,0.8649
935.50,0.8694
935.00,0.8740
934.50,0.8787
934.00,0.8832
933.50,0.8878
933.00,0.8928
932.50,0.8977
932.00,0.9026
931.50,0.9076
931.00,0.9128
930.50,0.9180
930.00,0.9230
929.50,0.9281
929.00,0.9334
928.50,0.9387
928.00,0.9438
927.50,0.9490
927.00,0.9545
926.50,0.9600
926.00,0.9651
925.50,0.9704
925.00,0.9760
924.50,0.9815
924.00,0.9869
923.50,0.9926
923.00,0.9988
922.50,1.0049
922.00,1.0109
921.50,1.0171
921.00,1.0236
920.50,1.0302
920.00,1.0366
919.50,1.0433
919.00,1.0503
918.50,1.0571
918.00,1.0637
917.50,1.0704
917.00,1.0775
916.50,1.0844
916.00,1.0911
915.50,1.0978
915.00,1.1046
914.50,1.1112
914.00,1.1173
913.50,1.1233
913.00,1.1294
912.50,1.1352
912.00,1.1405
911.50,1.1460
911.00,1.1516
910.50,1.1570
910.00,1.1617
909.50,1.1665
909.00,1.1716
908.50,1.1766
908.00,1.1814
907.50,1.1864
907.00,1.1919
906.50,1.1971
906.00,1.2019
905.50,1.2068
905.00,1.2124
904.50,1.2179
904.00,1.2231
903.50,1.2288
903.00,1.2352
902.50,1.2418
902.00,1.2482
901.50,1.2549
901.00,1.2621
900.50,1.2690
900.00,1.2755
899.50,1.2824
899.00,1.2900
898.50,1.2977
898.00,1.3049
897.50,1.3124
897.00,1.3204
896.50,1.3283
896.00,1.3356
895.50,1.3431
895.00,1.3512
894.50,1.3590
894.00,1.3661
893.50,1.3737
893.00,1.3822
892.50,1.3907
892.00,1.3986
891.50,1.4067
891.00,1.4154
890.50,1.4236
890.00,1.4314
889.50,1.4398
889.00,1.4494
888.50,1.4590
888.00,1.4679
887.50,1.4773
887.00,1.4876
886.50,1.4976
886.00,1.5070
885.50,1.5171
885.00,1.5286
884.50,1.5398
884.00,1.5499
883.50,1.5606
883.00,1.5727
882.50,1.5851
882.00,1.5966
881.50,1.6085
881.00,1.6212
880.50,1.6334
880.00,1.6446
879.50,1.6569
879.00,1.6711
878.50,1.6849
878.00,1.6971
877.50,1.7100
877.00,1.7249
876.50,1.7396
876.00,1.7529
875.50,1.7671
875.00,1.7833
874.50,1.7989
874.00,1.8125
873.50,1.8270
873.00,1.8436
872.50,1.8592
872.00,1.8725
871.50,1.8867
871.00,1.9031
870.50,1.9173
870.00,1.9272
869.50,1.9370
869.00,1.9494
868.50,1.9610
868.00,1.9695
867.50,1.9782
867.00,1.9886
866.50,1.9970
866.00,2.0017
865.50,2.0065
865.00,2.0131
864.50,2.0177
864.00,2.0188
863.50,2.0209
863.00,2.0260
862.50,2.0301
862.00,2.0315
861.50,2.0345
861.00,2.0407
860.50,2.0456
860.00,2.0471
859.50,2.0496
859.00,2.0557
858.50,2.0611
858.00,2.0637
857.50,2.0678
857.00,2.0756
856.50,2.0833
856.00,2.0887
855.50,2.0958
855.00,2.1060
854.50,2.1142
854.00,2.1191
853.50,2.1264
853.00,2.1392
852.50,2.1519
852.00,2.1608
851.50,2.1703
851.00,2.1829
850.50,2.1937
850.00,2.2005
849.50,2.2092
849.00,2.2216
848.50,2.2308
848.00,2.2349
847.50,2.2421
847.00,2.2563
846.50,2.2684
846.00,2.2725
845.50,2.2751
845.00,2.2812
844.50,2.2846
844.00,2.2826
843.50,2.2827
843.00,2.2891
842.50,2.2948
842.00,2.2962
841.50,2.2997
841.00,2.3080
840.50,2.3129
840.00,2.3104
839.50,2.3088
839.00,2.3129
838.50,2.3157
838.00,2.3136
837.50,2.3149
837.00,2.3227
836.50,2.3280
836.00,2.3256
835.50,2.3245
835.00,2.3314
834.50,2.3398
834.00,2.3447
833.50,2.3523
833.00,2.3651
832.50,2.3743
832.00,2.3757
831.50,2.3791
831.00,2.3897
830.50,2.3971
830.00,2.3956
829.50,2.3966
829.00,2.4071
828.50,2.4165
828.00,2.4170
827.50,2.4184
827.00,2.4275
826.50,2.4342
826.00,2.4335
825.50,2.4387
825.00,2.4547
824.50,2.4647
824.00,2.4605
823.50,2.4588
823.00,2.4699
822.50,2.4808
822.00,2.4824
821.50,2.4862
821.00,2.4977
820.50,2.5044
820.00,2.5008
819.50,2.5014
819.00,2.5114
818.50,2.5155
818.00,2.5062
817.50,2.4984
817.00,2.5011
816.50,2.5036
816.00,2.4990
815.50,2.4972
815.00,2.5031
814.50,2.5056
814.00,2.5006
813.50,2.5014
813.00,2.5130
812.50,2.5208
812.00,2.5170
811.50,2.5152
811.00,2.5233
810.50,2.5286
810.00,2.5223
809.50,2.5161
809.00,2.5189
808.50,2.5210
808.00,2.5158
807.50,2.5136
807.00,2.5193
806.50,2.5219
806.00,2.5157
805.50,2.5108
805.00,2.5132
804.50,2.5140
804.00,2.5085
803.50,2.5080
803.00,2.5175
802.50,2.5249
802.00,2.5226
801.50,2.5220
801.00,2.5299
800.50,2.5349
800.00,2.5292
799.50,2.5231
799.00,2.5239
798.50,2.5230
798.00,2.5160
797.50,2.5142
797.00,2.5232
796.50,2.5315
796.00,2.5310
795.50,2.5297
795.00,2.5330
794.50,2.5324
794.00,2.5244
793.50,2.5204
793.00,2.5259
792.50,2.5288
792.00,2.5222
791.50,2.5182
791.00,2.5243
790.50,2.5300
790.00,2.5279
789.50,2.5269
789.00,2.5321
788.50,2.5344
788.00,2.5289
787.50,2.5259
787.00,2.5305
786.50,2.5323
786.00,2.5266
785.50,2.5248
785.00,2.5323
784.50,2.5367
784.00,2.5313
783.50,2.5276
783.00,2.5326
782.50,2.5356
782.00,2.5298
781.50,2.5259
781.00,2.5304
780.50,2.5336
780.00,2.5294
779.50,2.5285
779.00,2.5378
778.50,2.5466
778.00,2.5462
777.50,2.5450
777.00,2.5497
776.50,2.5512
776.00,2.5437
775.50,2.5385
775.00,2.5422
774.50,2.5446
774.00,2.5378
773.50,2.5302
773.00,2.5295
772.50,2.5290
772.00,2.5248
771.50,2.5255
771.00,2.5351
770.50,2.5427
770.00,2.5398
769.50,2.5352
769.00,2.5376
768.50,2.5404
768.00,2.5376
767.50,2.5366
767.00,2.5421
766.50,2.5454
766.00,2.5408
765.50,2.5367
765.00,2.5391
764.50,2.5409
764.00,2.5364
763.50,2.5332
763.00,2.5360
762.50,2.5357
762.00,2.5296
761.50,2.5288
761.00,2.5391
760.50,2.5488
760.00,2.5473
759.50,2.5430
759.00,2.5446
758.50,2.5470
758.00,2.5435
757.50,2.5394
757.00,2.5406
756.50,2.5421
756.00,2.5409
755.50,2.5432
755.00,2.5506
754.50,2.5526
754.00,2.5445
753.50,2.5374
753.00,2.5386
752.50,2.5412
752.00,2.5394
751.50,2.5406
751.00,2.5486
750.50,2.5531
750.00,2.5477
749.50,2.5418
749.00,2.5417
748.50,2.5413
748.00,2.5362
747.50,2.5341
747.00,2.5398
746.50,2.5445
746.00,2.5417
745.50,2.5401
745.00,2.5462
744.50,2.5524
744.00,2.5509
743.50,2.5474
743.00,2.5492
742.50,2.5515
742.00,2.5496
741.50,2.5485
741.00,2.5511
740.50,2.5504
740.00,2.5442
739.50,2.5411
739.00,2.5452
738.50,2.5479
738.00,2.5445
737.50,2.5432
737.00,2.5484
736.50,2.5521
736.00,2.5499
735.50,2.5506
735.00,2.5578
734.50,2.5608
734.00,2.5546
733.50,2.5500
733.00,2.5539
732.50,2.5563
732.00,2.5494
731.50,2.5419
731.00,2.5427
730.50,2.5475
730.00,2.5491
729.50,2.5514
729.00,2.5581
728.50,2.5619
728.00,2.5577
727.50,2.5535
727.00,2.5559
726.50,2.5583
726.00,2.5541
725.50,2.5488
725.00,2.5477
724.50,2.5460
724.00,2.5407
723.50,2.5384
723.00,2.5432
722.50,2.5476
722.00,2.5467
721.50,2.5471
721.00,2.5532
720.50,2.5575
720.00,2.5539
719.50,2.5512
719.00,2.5576
718.50,2.5665
718.00,2.5688
717.50,2.5660
717.00,2.5626
716.50,2.5565
716.00,2.5479
715.50,2.5452
715.00,2.5522
714.50,2.5589
714.00,2.5579
713.50,2.5554
713.00,2.5558
712.50,2.5546
712.00,2.5491
711.50,2.5457
711.00,2.5496
710.50,2.5541
710.00,2.5534
709.50,2.5535
709.00,2.5601
708.50,2.5678
708.00,2.5698
707.50,2.5708
707.00,2.5752
706.50,2.5771
706.00,2.5729
705.50,2.5706
705.00,2.5747
704.50,2.5758
704.00,2.5668
703.50,2.5554
703.00,2.5521
702.50,2.5548
702.00,2.5563
701.50,2.5583
701.00,2.5641
700.50,2.5698
700.00,2.5719
699.50,2.5726
699.00,2.5749
698.50,2.5748
698.00,2.5697
697.50,2.5668
697.00,2.5698
696.50,2.5705
696.00,2.5644
695.50,2.5587
695.00,2.5600
694.50,2.5645
694.00,2.5649
693.50,2.5641
693.00,2.5676
692.50,2.5713
692.00,2.5709
691.50,2.5712
691.00,2.5773
690.50,2.5833
690.00,2.5830
689.50,2.5794
689.00,2.5768
688.50,2.5711
688.00,2.5614
687.50,2.5568
687.00,2.5629
686.50,2.5714
686.00,2.5724
685.50,2.5704
685.00,2.5727
684.50,2.5755
684.00,2.5742
683.50,2.5736
683.00,2.5796
682.50,2.5887
682.00,2.5941
681.50,2.5980
681.00,2.6047
680.50,2.6093
680.00,2.6062
679.50,2.5996
679.00,2.5950
678.50,2.5910
678.00,2.5858
677.50,2.5838
677.00,2.5877
676.50,2.5903
676.00,2.5867
675.50,2.5830
675.00,2.5845
674.50,2.5852
674.00,2.5791
673.50,2.5711
673.00,2.5685
672.50,2.5704
672.00,2.5718
671.50,2.5733
671.00,2.5769
670.50,2.5795
670.00,2.5750
669.50,2.5679
669.00,2.5656
668.50,2.5789
668.00,2.6099
667.50,2.6231
667.00,2.6138
666.50,2.6006
666.00,2.5870
665.50,2.5784
665.00,2.5764
664.50,2.5765
664.00,2.5750
663.50,2.5745
663.00,2.5802
662.50,2.5878
662.00,2.5899
661.50,2.5883
661.00,2.5880
660.50,2.5897
660.00,2.5932
659.50,2.6014
659.00,2.6146
658.50,2.6240
658.00,2.6228
657.50,2.6174
657.00,2.6156
656.50,2.6148
656.00,2.6085
655.50,2.5981
655.00,2.5903
654.50,2.5872
654.00,2.5853
653.50,2.5862
653.00,2.5929
652.50,2.6011
652.00,2.6035
651.50,2.5956
651.00,2.5803
650.50,2.5683
650.00,2.5658
649.50,2.5714
649.00,2.5802
648.50,2.5846
648.00,2.5807
647.50,2.5735
647.00,2.5713
646.50,2.5738
646.00,2.5762
645.50,2.5783
645.00,2.5824
644.50,2.5851
644.00,2.5854
643.50,2.5887
643.00,2.5978
642.50,2.6109
642.00,2.6223
641.50,2.6292
641.00,2.6314
640.50,2.6275
640.00,2.6176
639.50,2.6032
639.00,2.5881
638.50,2.5751
638.00,2.5681
637.50,2.5723
637.00,2.5881
636.50,2.6066
636.00,2.6163
635.50,2.6130
635.00,2.6044
634.50,2.6027
634.00,2.6068
633.50,2.6102
633.00,2.6131
632.50,2.6152
632.00,2.6146
631.50,2.6104
631.00,2.6058
630.50,2.6031
630.00,2.6004
629.50,2.5971
629.00,2.5942
628.50,2.5927
628.00,2.5936
627.50,2.5976
627.00,2.6052
626.50,2.6161
626.00,2.6271
625.50,2.6330
625.00,2.6314
624.50,2.6259
624.00,2.6214
623.50,2.6203
623.00,2.6212
622.50,2.6190
622.00,2.6118
621.50,2.6020
621.00,2.5940
620.50,2.5879
620.00,2.5812
619.50,2.5768
619.00,2.5803
618.50,2.5927
618.00,2.6064
617.50,2.6128
617.00,2.6114
616.50,2.6065
616.00,2.6021
615.50,2.5993
615.00,2.5995
614.50,2.6029
614.00,2.6053
613.50,2.6006
613.00,2.5901
612.50,2.5852
612.00,2.5927
611.50,2.6064
611.00,2.6163
610.50,2.6203
610.00,2.6206
609.50,2.6178
609.00,2.6154
608.50,2.6174
608.00,2.6222
607.50,2.6223
607.00,2.6200
606.50,2.6257
606.00,2.6416
605.50,2.6577
605.00,2.6630
604.50,2.6575
604.00,2.6466
603.50,2.6322
603.00,2.6197
602.50,2.6148
602.00,2.6184
601.50,2.6282
601.00,2.6354
600.50,2.6392
600.00,2.6406
599.50,2.6344
599.00,2.6275
598.50,2.6267
598.00,2.6277
597.50,2.6231
597.00,2.6151
596.50,2.6132
596.00,2.6220
595.50,2.6328
595.00,2.6375
594.50,2.6364
594.00,2.6334
593.50,2.6288
593.00,2.6243
592.50,2.6255
592.00,2.6306
591.50,2.6299
591.00,2.6245
590.50,2.6243
590.00,2.6317
589.50,2.6386
589.00,2.6383
588.50,2.6369
588.00,2.6426
587.50,2.6493
587.00,2.6476
586.50,2.6421
586.00,2.6409
585.50,2.6440
585.00,2.6488
584.50,2.6547
584.00,2.6579
583.50,2.6545
583.00,2.6491
582.50,2.6501
582.00,2.6566
581.50,2.6561
581.00,2.6471
580.50,2.6444
580.00,2.6528
579.50,2.6591
579.00,2.6587
578.50,2.6601
578.00,2.6642
577.50,2.6591
577.00,2.6404
576.50,2.6216
576.00,2.6149
575.50,2.6141
575.00,2.6101
574.50,2.6111
574.00,2.6236
573.50,2.6350
573.00,2.6345
572.50,2.6335
572.00,2.6433
571.50,2.6576
571.00,2.6631
570.50,2.6594
570.00,2.6548
569.50,2.6477
569.00,2.6397
568.50,2.6383
568.00,2.6420
567.50,2.6397
567.00,2.6322
566.50,2.6368
566.00,2.6597
565.50,2.6828
565.00,2.6895
564.50,2.6811
564.00,2.6686
563.50,2.6536
563.00,2.6369
562.50,2.6302
562.00,2.6347
561.50,2.6378
561.00,2.6360
560.50,2.6421
560.00,2.6629
559.50,2.6831
559.00,2.6881
558.50,2.6886
558.00,2.6958
557.50,2.6952
557.00,2.6794
556.50,2.6675
556.00,2.6732
555.50,2.6830
555.00,2.6789
554.50,2.6677
554.00,2.6671
553.50,2.6716
553.00,2.6696
552.50,2.6655
552.00,2.6639
551.50,2.6571
551.00,2.6416
550.50,2.6295
550.00,2.6306
549.50,2.6329
549.00,2.6268
548.50,2.6224
548.00,2.6275
547.50,2.6376
547.00,2.6487
546.50,2.6615
546.00,2.6728
545.50,2.6663
545.00,2.6436
544.50,2.6337
544.00,2.6488
543.50,2.6640
543.00,2.6564
542.50,2.6388
542.00,2.6274
541.50,2.6174
541.00,2.6049
540.50,2.6014
540.00,2.6137
539.50,2.6263
539.00,2.6285
538.50,2.6348
538.00,2.6533
537.50,2.6657
537.00,2.6585
536.50,2.6441
536.00,2.6373
535.50,2.6334
535.00,2.6238
534.50,2.6157
534.00,2.6193
533.50,2.6290
533.00,2.6363
532.50,2.6448
532.00,2.6557
531.50,2.6563
531.00,2.6423
530.50,2.6296
530.00,2.6272
529.50,2.6191
529.00,2.5978
528.50,2.5837
528.00,2.5867
527.50,2.5871
527.00,2.5736
526.50,2.5691
526.00,2.5938
525.50,2.6214
525.00,2.6202
524.50,2.6060
524.00,2.6036
523.50,2.6100
523.00,2.6106
522.50,2.6102
522.00,2.6221
521.50,2.6367
521.00,2.6415
520.50,2.6438
520.00,2.6469
519.50,2.6366
519.00,2.6098
518.50,2.5900
518.00,2.5911
517.50,2.5933
517.00,2.5826
516.50,2.5812
516.00,2.6007
515.50,2.6206
515.00,2.6244
514.50,2.6228
514.00,2.6285
513.50,2.6280
513.00,2.6145
512.50,2.6075
512.00,2.6144
511.50,2.6135
511.00,2.5971
510.50,2.5865
510.00,2.5951
509.50,2.6084
509.00,2.6121
508.50,2.6193
508.00,2.6370
507.50,2.6375
507.00,2.6126
506.50,2.6046
506.00,2.6411
505.50,2.6888
505.00,2.6995
504.50,2.6907
504.00,2.6886
503.50,2.6735
503.00,2.6354
502.50,2.6137
502.00,2.6305
501.50,2.6427
501.00,2.6253
500.50,2.6149
500.00,2.6406
499.50,2.6715
499.00,2.6649
498.50,2.6498
498.00,2.6586
497.50,2.6694
497.00,2.6598
496.50,2.6490
496.00,2.6573
495.50,2.6641
495.00,2.6464
494.50,2.6277
494.00,2.6311
493.50,2.6305
493.00,2.6125
492.50,2.6193
492.00,2.6702
491.50,2.7100
491.00,2.6800
490.50,2.6274
490.00,2.6059
489.50,2.5946
489.00,2.5717
488.50,2.5653
488.00,2.5943
487.50,2.6224
487.00,2.6125
486.50,2.5984
486.00,2.6171
485.50,2.6415
485.00,2.6341
484.50,2.6166
484.00,2.6170
483.50,2.6078
483.00,2.5717
482.50,2.5523
482.00,2.5757
481.50,2.6071
481.00,2.6055
480.50,2.6006
480.00,2.6242
479.50,2.6329
479.00,2.5970
478.50,2.5714
478.00,2.5949
477.50,2.6396
477.00,2.6579
476.50,2.6646
476.00,2.6917
475.50,2.7020
475.00,2.6601
474.50,2.6172
474.00,2.6176
473.50,2.6309
473.00,2.6177
472.50,2.6149
472.00,2.6488
471.50,2.6626
471.00,2.6342
470.50,2.6071
470.00,2.6058
469.50,2.5902
469.00,2.5451
468.50,2.5275
468.00,2.5779
467.50,2.6547
467.00,2.6719
466.50,2.6501
466.00,2.6442
465.50,2.6292
465.00,2.5935
464.50,2.5903
464.00,2.6467
463.50,2.6891
463.00,2.6377
462.50,2.5820
462.00,2.6000
461.50,2.6416
461.00,2.6282
460.50,2.6025
460.00,2.6197
459.50,2.6439
459.00,2.6331
458.50,2.6312
458.00,2.6800
457.50,2.6909
457.00,2.6000
456.50,2.5181
456.00,2.4990
455.50,2.5021
455.00,2.4875
454.50,2.4852
454.00,2.5311
453.50,2.5812
453.00,2.5727
452.50,2.5652
452.00,2.6122
451.50,2.6655
451.00,2.6545
450.50,2.6081
450.00,2.6007
449.50,2.6037
449.00,2.5623
448.50,2.5247
448.00,2.5442
447.50,2.5872
447.00,2.5955
446.50,2.6143
446.00,2.6869
445.50,2.7282
445.00,2.6714
444.50,2.6028
444.00,2.6036
443.50,2.6353
443.00,2.6184
442.50,2.5948
442.00,2.6149
441.50,2.6164
441.00,2.5585
440.50,2.5224
440.00,2.5476
439.50,2.5699
439.00,2.5335
438.50,2.5134
438.00,2.5728
437.50,2.6561
437.00,2.6781
436.50,2.6675
436.00,2.6750
435.50,2.6512
435.00,2.5544
434.50,2.4759
434.00,2.4669
433.50,2.4824
433.00,2.4871
432.50,2.5371
432.00,2.6884
431.50,2.8368
431.00,2.7644
430.50,2.6359
430.00,2.6083
429.50,2.6192
429.00,2.5738
428.50,2.5293
428.00,2.5618
427.50,2.6189
427.00,2.6045
426.50,2.5853
426.00,2.6457
425.50,2.6990
425.00,2.6169
424.50,2.5061
424.00,2.4534
423.50,2.4315
423.00,2.3747
422.50,2.3292
422.00,2.3716
421.50,2.4585
421.00,2.5038
420.50,2.5559
420.00,2.7519
419.50,2.9589
419.00,2.6908
418.50,2.5011
418.00,2.5526
417.50,2.6557
417.00,2.6410
416.50,2.6004
416.00,2.6553
415.50,2.7233
415.00,2.6673
414.50,2.5995
414.00,2.6426
413.50,2.6873
413.00,2.5573
412.50,2.4342
412.00,2.4306
411.50,2.4837
411.00,2.4834
410.50,2.4496
410.00,2.4454
409.50,2.4203
409.00,2.3559
408.50,2.3566
408.00,2.4722
407.50,2.5742
407.00,2.4889
406.50,2.4032
406.00,2.4401
405.50,2.4829
405.00,2.4533
404.50,2.4131
404.00,2.4269
403.50,2.4279
403.00,2.3246
402.50,2.2465
402.00,2.2660
401.50,2.3011
401.00,2.3088
400.50,2.3944
400.00,2.6442
