Created as New Dataset,Sample 009 By irlear Date Monday, July 06 2009
cm-1,A
4000.00,0.0387
3999.50,0.0387
3999.00,0.0387
3998.50,0.0387
3998.00,0.0387
3997.50,0.0387
3997.00,0.0387
3996.50,0.0387
3996.00,0.0387
3995.50,0.0387
3995.00,0.0387
3994.50,0.0387
3994.00,0.0387
3993.50,0.0387
3993.00,0.0386
3992.50,0.0386
3992.00,0.0386
3991.50,0.0386
3991.00,0.0386
3990.50,0.0386
3990.00,0.0386
3989.50,0.0386
3989.00,0.0386
3988.50,0.0386
3988.00,0.0386
3987.50,0.0386
3987.00,0.0386
3986.50,0.0386
3986.00,0.0385
3985.50,0.0385
3985.00,0.0385
3984.50,0.0385
3984.00,0.0385
3983.50,0.0385
3983.00,0.0385
3982.50,0.0385
3982.00,0.0385
3981.50,0.0385
3981.00,0.0385
3980.50,0.0385
3980.00,0.0385
3979.50,0.0385
3979.00,0.0385
3978.50,0.0385
3978.00,0.0384
3977.50,0.0384
3977.00,0.0384
3976.50,0.0384
3976.00,0.0384
3975.50,0.0384
3975.00,0.0384
3974.50,0.0384
3974.00,0.0384
3973.50,0.0384
3973.00,0.0384
3972.50,0.0384
3972.00,0.0384
3971.50,0.0384
3971.00,0.0384
3970.50,0.0384
3970.00,0.0384
3969.50,0.0384
3969.00,0.0384
3968.50,0.0383
3968.00,0.0383
3967.50,0.0384
3967.00,0.0384
3966.50,0.0384
3966.00,0.0384
3965.50,0.0384
3965.00,0.0384
3964.50,0.0383
3964.00,0.0383
3963.50,0.0383
3963.00,0.0383
3962.50,0.0383
3962.00,0.0383
3961.50,0.0383
3961.00,0.0382
3960.50,0.0382
3960.00,0.0382
3959.50,0.0383
3959.00,0.0383
3958.50,0.0383
3958.00,0.0383
3957.50,0.0383
3957.00,0.0383
3956.50,0.0382
3956.00,0.0382
3955.50,0.0382
3955.00,0.0383
3954.50,0.0383
3954.00,0.0383
3953.50,0.0382
3953.00,0.0382
3952.50,0.0382
3952.00,0.0382
3951.50,0.0382
3951.00,0.0382
3950.50,0.0382
3950.00,0.0382
3949.50,0.0382
3949.00,0.0381
3948.50,0.0381
3948.00,0.0381
3947.50,0.0381
3947.00,0.0381
3946.50,0.0381
3946.00,0.0381
3945.50,0.0381
3945.00,0.0382
3944.50,0.0382
3944.00,0.0381
3943.50,0.0381
3943.00,0.0380
3942.50,0.0380
3942.00,0.0380
3941.50,0.0380
3941.00,0.0381
3940.50,0.0381
3940.00,0.0382
3939.50,0.0382
3939.00,0.0382
3938.50,0.0381
3938.00,0.0382
3937.50,0.0382
3937.00,0.0381
3936.50,0.0381
3936.00,0.0381
3935.50,0.0381
3935.00,0.0380
3934.50,0.0381
3934.00,0.0381
3933.50,0.0381
3933.00,0.0380
3932.50,0.0380
3932.00,0.0380
3931.50,0.0379
3931.00,0.0379
3930.50,0.0379
3930.00,0.0380
3929.50,0.0380
3929.00,0.0381
3928.50,0.0381
3928.00,0.0381
3927.50,0.0381
3927.00,0.0381
3926.50,0.0381
3926.00,0.0380
3925.50,0.0380
3925.00,0.0380
3924.50,0.0379
3924.00,0.0379
3923.50,0.0379
3923.00,0.0379
3922.50,0.0380
3922.00,0.0380
3921.50,0.0380
3921.00,0.0380
3920.50,0.0380
3920.00,0.0380
3919.50,0.0380
3919.00,0.0380
3918.50,0.0380
3918.00,0.0379
3917.50,0.0380
3917.00,0.0380
3916.50,0.0380
3916.00,0.0379
3915.50,0.0379
3915.00,0.0380
3914.50,0.0381
3914.00,0.0381
3913.50,0.0381
3913.00,0.0381
3912.50,0.0381
3912.00,0.0381
3911.50,0.0381
3911.00,0.0381
3910.50,0.0381
3910.00,0.0381
3909.50,0.0381
3909.00,0.0381
3908.50,0.0381
3908.00,0.0381
3907.50,0.0381
3907.00,0.0381
3906.50,0.0381
3906.00,0.0380
3905.50,0.0379
3905.00,0.0378
3904.50,0.0378
3904.00,0.0379
3903.50,0.0381
3903.00,0.0380
3902.50,0.0378
3902.00,0.0378
3901.50,0.0380
3901.00,0.0380
3900.50,0.0379
3900.00,0.0377
3899.50,0.0378
3899.00,0.0380
3898.50,0.0380
3898.00,0.0379
3897.50,0.0380
3897.00,0.0381
3896.50,0.0382
3896.00,0.0382
3895.50,0.0382
3895.00,0.0382
3894.50,0.0382
3894.00,0.0381
3893.50,0.0381
3893.00,0.0381
3892.50,0.0380
3892.00,0.0379
3891.50,0.0379
3891.00,0.0380
3890.50,0.0381
3890.00,0.0381
3889.50,0.0382
3889.00,0.0382
3888.50,0.0383
3888.00,0.0383
3887.50,0.0382
3887.00,0.0381
3886.50,0.0379
3886.00,0.0379
3885.50,0.0379
3885.00,0.0380
3884.50,0.0380
3884.00,0.0380
3883.50,0.0380
3883.00,0.0381
3882.50,0.0382
3882.00,0.0381
3881.50,0.0380
3881.00,0.0380
3880.50,0.0380
3880.00,0.0380
3879.50,0.0380
3879.00,0.0380
3878.50,0.0381
3878.00,0.0382
3877.50,0.0383
3877.00,0.0383
3876.50,0.0383
3876.00,0.0383
3875.50,0.0382
3875.00,0.0381
3874.50,0.0381
3874.00,0.0381
3873.50,0.0381
3873.00,0.0381
3872.50,0.0381
3872.00,0.0381
3871.50,0.0381
3871.00,0.0381
3870.50,0.0381
3870.00,0.0381
3869.50,0.0381
3869.00,0.0382
3868.50,0.0382
3868.00,0.0382
3867.50,0.0382
3867.00,0.0383
3866.50,0.0383
3866.00,0.0382
3865.50,0.0382
3865.00,0.0382
3864.50,0.0383
3864.00,0.0382
3863.50,0.0382
3863.00,0.0381
3862.50,0.0382
3862.00,0.0383
3861.50,0.0384
3861.00,0.0384
3860.50,0.0384
3860.00,0.0385
3859.50,0.0385
3859.00,0.0386
3858.50,0.0386
3858.00,0.0385
3857.50,0.0385
3857.00,0.0385
3856.50,0.0385
3856.00,0.0384
3855.50,0.0381
3855.00,0.0380
3854.50,0.0385
3854.00,0.0391
3853.50,0.0391
3853.00,0.0386
3852.50,0.0384
3852.00,0.0385
3851.50,0.0388
3851.00,0.0389
3850.50,0.0388
3850.00,0.0388
3849.50,0.0389
3849.00,0.0390
3848.50,0.0390
3848.00,0.0390
3847.50,0.0390
3847.00,0.0391
3846.50,0.0391
3846.00,0.0391
3845.50,0.0391
3845.00,0.0392
3844.50,0.0392
3844.00,0.0392
3843.50,0.0392
3843.00,0.0393
3842.50,0.0393
3842.00,0.0393
3841.50,0.0393
3841.00,0.0394
3840.50,0.0394
3840.00,0.0394
3839.50,0.0393
3839.00,0.0392
3838.50,0.0392
3838.00,0.0393
3837.50,0.0396
3837.00,0.0397
3836.50,0.0396
3836.00,0.0394
3835.50,0.0394
3835.00,0.0396
3834.50,0.0398
3834.00,0.0398
3833.50,0.0398
3833.00,0.0398
3832.50,0.0398
3832.00,0.0399
3831.50,0.0400
3831.00,0.0400
3830.50,0.0400
3830.00,0.0400
3829.50,0.0400
3829.00,0.0401
3828.50,0.0402
3828.00,0.0401
3827.50,0.0401
3827.00,0.0400
3826.50,0.0401
3826.00,0.0401
3825.50,0.0401
3825.00,0.0401
3824.50,0.0401
3824.00,0.0402
3823.50,0.0402
3823.00,0.0401
3822.50,0.0401
3822.00,0.0401
3821.50,0.0401
3821.00,0.0400
3820.50,0.0399
3820.00,0.0399
3819.50,0.0399
3819.00,0.0400
3818.50,0.0401
3818.00,0.0402
3817.50,0.0402
3817.00,0.0401
3816.50,0.0401
3816.00,0.0402
3815.50,0.0404
3815.00,0.0404
3814.50,0.0403
3814.00,0.0403
3813.50,0.0404
3813.00,0.0405
3812.50,0.0405
3812.00,0.0406
3811.50,0.0406
3811.00,0.0406
3810.50,0.0406
3810.00,0.0406
3809.50,0.0406
3809.00,0.0406
3808.50,0.0406
3808.00,0.0405
3807.50,0.0406
3807.00,0.0407
3806.50,0.0409
3806.00,0.0408
3805.50,0.0408
3805.00,0.0407
3804.50,0.0408
3804.00,0.0409
3803.50,0.0409
3803.00,0.0408
3802.50,0.0407
3802.00,0.0407
3801.50,0.0407
3801.00,0.0409
3800.50,0.0410
3800.00,0.0410
3799.50,0.0409
3799.00,0.0409
3798.50,0.0411
3798.00,0.0411
3797.50,0.0411
3797.00,0.0411
3796.50,0.0412
3796.00,0.0412
3795.50,0.0413
3795.00,0.0413
3794.50,0.0413
3794.00,0.0414
3793.50,0.0415
3793.00,0.0416
3792.50,0.0416
3792.00,0.0417
3791.50,0.0417
3791.00,0.0417
3790.50,0.0418
3790.00,0.0418
3789.50,0.0419
3789.00,0.0420
3788.50,0.0421
3788.00,0.0421
3787.50,0.0422
3787.00,0.0423
3786.50,0.0423
3786.00,0.0424
3785.50,0.0424
3785.00,0.0424
3784.50,0.0425
3784.00,0.0426
3783.50,0.0426
3783.00,0.0427
3782.50,0.0428
3782.00,0.0429
3781.50,0.0429
3781.00,0.0429
3780.50,0.0429
3780.00,0.0429
3779.50,0.0429
3779.00,0.0430
3778.50,0.0431
3778.00,0.0432
3777.50,0.0433
3777.00,0.0434
3776.50,0.0435
3776.00,0.0436
3775.50,0.0436
3775.00,0.0437
3774.50,0.0437
3774.00,0.0438
3773.50,0.0438
3773.00,0.0438
3772.50,0.0439
3772.00,0.0439
3771.50,0.0439
3771.00,0.0439
3770.50,0.0439
3770.00,0.0440
3769.50,0.0440
3769.00,0.0441
3768.50,0.0441
3768.00,0.0441
3767.50,0.0442
3767.00,0.0442
3766.50,0.0442
3766.00,0.0442
3765.50,0.0442
3765.00,0.0443
3764.50,0.0443
3764.00,0.0443
3763.50,0.0443
3763.00,0.0444
3762.50,0.0444
3762.00,0.0444
3761.50,0.0444
3761.00,0.0444
3760.50,0.0444
3760.00,0.0444
3759.50,0.0444
3759.00,0.0443
3758.50,0.0442
3758.00,0.0442
3757.50,0.0443
3757.00,0.0443
3756.50,0.0444
3756.00,0.0444
3755.50,0.0443
3755.00,0.0443
3754.50,0.0443
3754.00,0.0443
3753.50,0.0442
3753.00,0.0441
3752.50,0.0442
3752.00,0.0443
3751.50,0.0443
3751.00,0.0441
3750.50,0.0438
3750.00,0.0437
3749.50,0.0439
3749.00,0.0441
3748.50,0.0441
3748.00,0.0439
3747.50,0.0438
3747.00,0.0438
3746.50,0.0437
3746.00,0.0435
3745.50,0.0434
3745.00,0.0435
3744.50,0.0435
3744.00,0.0434
3743.50,0.0434
3743.00,0.0434
3742.50,0.0433
3742.00,0.0433
3741.50,0.0433
3741.00,0.0433
3740.50,0.0433
3740.00,0.0432
3739.50,0.0431
3739.00,0.0431
3738.50,0.0431
3738.00,0.0430
3737.50,0.0429
3737.00,0.0428
3736.50,0.0428
3736.00,0.0428
3735.50,0.0427
3735.00,0.0426
3734.50,0.0426
3734.00,0.0428
3733.50,0.0429
3733.00,0.0429
3732.50,0.0431
3732.00,0.0434
3731.50,0.0436
3731.00,0.0436
3730.50,0.0435
3730.00,0.0436
3729.50,0.0437
3729.00,0.0438
3728.50,0.0438
3728.00,0.0438
3727.50,0.0439
3727.00,0.0439
3726.50,0.0439
3726.00,0.0440
3725.50,0.0440
3725.00,0.0440
3724.50,0.0441
3724.00,0.0443
3723.50,0.0443
3723.00,0.0444
3722.50,0.0445
3722.00,0.0446
3721.50,0.0446
3721.00,0.0447
3720.50,0.0448
3720.00,0.0449
3719.50,0.0450
3719.00,0.0451
3718.50,0.0452
3718.00,0.0452
3717.50,0.0453
3717.00,0.0454
3716.50,0.0455
3716.00,0.0456
3715.50,0.0457
3715.00,0.0457
3714.50,0.0458
3714.00,0.0458
3713.50,0.0459
3713.00,0.0459
3712.50,0.0461
3712.00,0.0463
3711.50,0.0463
3711.00,0.0463
3710.50,0.0462
3710.00,0.0463
3709.50,0.0466
3709.00,0.0468
3708.50,0.0469
3708.00,0.0470
3707.50,0.0471
3707.00,0.0472
3706.50,0.0473
3706.00,0.0474
3705.50,0.0475
3705.00,0.0475
3704.50,0.0476
3704.00,0.0476
3703.50,0.0477
3703.00,0.0477
3702.50,0.0477
3702.00,0.0477
3701.50,0.0477
3701.00,0.0478
3700.50,0.0478
3700.00,0.0478
3699.50,0.0478
3699.00,0.0478
3698.50,0.0478
3698.00,0.0478
3697.50,0.0477
3697.00,0.0477
3696.50,0.0476
3696.00,0.0476
3695.50,0.0475
3695.00,0.0475
3694.50,0.0474
3694.00,0.0474
3693.50,0.0473
3693.00,0.0473
3692.50,0.0472
3692.00,0.0470
3691.50,0.0469
3691.00,0.0468
3690.50,0.0466
3690.00,0.0464
3689.50,0.0461
3689.00,0.0460
3688.50,0.0462
3688.00,0.0464
3687.50,0.0464
3687.00,0.0463
3686.50,0.0462
3686.00,0.0462
3685.50,0.0462
3685.00,0.0462
3684.50,0.0461
3684.00,0.0461
3683.50,0.0461
3683.00,0.0461
3682.50,0.0461
3682.00,0.0460
3681.50,0.0460
3681.00,0.0459
3680.50,0.0459
3680.00,0.0458
3679.50,0.0458
3679.00,0.0457
3678.50,0.0457
3678.00,0.0457
3677.50,0.0456
3677.00,0.0456
3676.50,0.0456
3676.00,0.0457
3675.50,0.0455
3675.00,0.0453
3674.50,0.0453
3674.00,0.0454
3673.50,0.0455
3673.00,0.0457
3672.50,0.0458
3672.00,0.0457
3671.50,0.0457
3671.00,0.0459
3670.50,0.0460
3670.00,0.0460
3669.50,0.0458
3669.00,0.0457
3668.50,0.0458
3668.00,0.0460
3667.50,0.0461
3667.00,0.0462
3666.50,0.0463
3666.00,0.0464
3665.50,0.0465
3665.00,0.0465
3664.50,0.0466
3664.00,0.0466
3663.50,0.0467
3663.00,0.0467
3662.50,0.0468
3662.00,0.0468
3661.50,0.0468
3661.00,0.0468
3660.50,0.0469
3660.00,0.0469
3659.50,0.0470
3659.00,0.0471
3658.50,0.0472
3658.00,0.0472
3657.50,0.0472
3657.00,0.0473
3656.50,0.0474
3656.00,0.0476
3655.50,0.0477
3655.00,0.0477
3654.50,0.0477
3654.00,0.0478
3653.50,0.0479
3653.00,0.0480
3652.50,0.0479
3652.00,0.0478
3651.50,0.0478
3651.00,0.0478
3650.50,0.0477
3650.00,0.0476
3649.50,0.0477
3649.00,0.0479
3648.50,0.0481
3648.00,0.0481
3647.50,0.0481
3647.00,0.0481
3646.50,0.0481
3646.00,0.0482
3645.50,0.0483
3645.00,0.0484
3644.50,0.0486
3644.00,0.0486
3643.50,0.0486
3643.00,0.0486
3642.50,0.0486
3642.00,0.0486
3641.50,0.0486
3641.00,0.0486
3640.50,0.0486
3640.00,0.0486
3639.50,0.0486
3639.00,0.0486
3638.50,0.0485
3638.00,0.0485
3637.50,0.0485
3637.00,0.0484
3636.50,0.0484
3636.00,0.0483
3635.50,0.0483
3635.00,0.0482
3634.50,0.0481
3634.00,0.0481
3633.50,0.0480
3633.00,0.0480
3632.50,0.0479
3632.00,0.0479
3631.50,0.0479
3631.00,0.0478
3630.50,0.0477
3630.00,0.0476
3629.50,0.0475
3629.00,0.0473
3628.50,0.0472
3628.00,0.0472
3627.50,0.0473
3627.00,0.0474
3626.50,0.0474
3626.00,0.0474
3625.50,0.0474
3625.00,0.0474
3624.50,0.0474
3624.00,0.0474
3623.50,0.0474
3623.00,0.0473
3622.50,0.0472
3622.00,0.0471
3621.50,0.0471
3621.00,0.0470
3620.50,0.0470
3620.00,0.0470
3619.50,0.0471
3619.00,0.0471
3618.50,0.0470
3618.00,0.0469
3617.50,0.0469
3617.00,0.0470
3616.50,0.0470
3616.00,0.0470
3615.50,0.0470
3615.00,0.0471
3614.50,0.0470
3614.00,0.0470
3613.50,0.0469
3613.00,0.0469
3612.50,0.0469
3612.00,0.0470
3611.50,0.0470
3611.00,0.0471
3610.50,0.0470
3610.00,0.0471
3609.50,0.0471
3609.00,0.0472
3608.50,0.0471
3608.00,0.0470
3607.50,0.0470
3607.00,0.0470
3606.50,0.0471
3606.00,0.0471
3605.50,0.0471
3605.00,0.0472
3604.50,0.0473
3604.00,0.0473
3603.50,0.0473
3603.00,0.0473
3602.50,0.0474
3602.00,0.0473
3601.50,0.0473
3601.00,0.0473
3600.50,0.0473
3600.00,0.0473
3599.50,0.0473
3599.00,0.0473
3598.50,0.0474
3598.00,0.0474
3597.50,0.0475
3597.00,0.0475
3596.50,0.0475
3596.00,0.0475
3595.50,0.0475
3595.00,0.0475
3594.50,0.0474
3594.00,0.0474
3593.50,0.0474
3593.00,0.0475
3592.50,0.0475
3592.00,0.0475
3591.50,0.0476
3591.00,0.0476
3590.50,0.0476
3590.00,0.0476
3589.50,0.0475
3589.00,0.0475
3588.50,0.0474
3588.00,0.0473
3587.50,0.0471
3587.00,0.0469
3586.50,0.0469
3586.00,0.0469
3585.50,0.0470
3585.00,0.0471
3584.50,0.0472
3584.00,0.0473
3583.50,0.0473
3583.00,0.0472
3582.50,0.0472
3582.00,0.0472
3581.50,0.0472
3581.00,0.0472
3580.50,0.0472
3580.00,0.0472
3579.50,0.0471
3579.00,0.0471
3578.50,0.0471
3578.00,0.0471
3577.50,0.0471
3577.00,0.0470
3576.50,0.0470
3576.00,0.0470
3575.50,0.0470
3575.00,0.0469
3574.50,0.0469
3574.00,0.0468
3573.50,0.0468
3573.00,0.0468
3572.50,0.0468
3572.00,0.0467
3571.50,0.0467
3571.00,0.0466
3570.50,0.0466
3570.00,0.0465
3569.50,0.0464
3569.00,0.0464
3568.50,0.0464
3568.00,0.0463
3567.50,0.0462
3567.00,0.0461
3566.50,0.0460
3566.00,0.0460
3565.50,0.0460
3565.00,0.0460
3564.50,0.0461
3564.00,0.0462
3563.50,0.0462
3563.00,0.0462
3562.50,0.0461
3562.00,0.0461
3561.50,0.0460
3561.00,0.0460
3560.50,0.0460
3560.00,0.0460
3559.50,0.0460
3559.00,0.0460
3558.50,0.0460
3558.00,0.0461
3557.50,0.0461
3557.00,0.0461
3556.50,0.0461
3556.00,0.0460
3555.50,0.0460
3555.00,0.0460
3554.50,0.0460
3554.00,0.0459
3553.50,0.0459
3553.00,0.0458
3552.50,0.0458
3552.00,0.0457
3551.50,0.0457
3551.00,0.0457
3550.50,0.0458
3550.00,0.0458
3549.50,0.0459
3549.00,0.0459
3548.50,0.0458
3548.00,0.0458
3547.50,0.0457
3547.00,0.0456
3546.50,0.0454
3546.00,0.0454
3545.50,0.0453
3545.00,0.0454
3544.50,0.0454
3544.00,0.0455
3543.50,0.0455
3543.00,0.0455
3542.50,0.0456
3542.00,0.0456
3541.50,0.0457
3541.00,0.0457
3540.50,0.0457
3540.00,0.0458
3539.50,0.0458
3539.00,0.0458
3538.50,0.0457
3538.00,0.0457
3537.50,0.0456
3537.00,0.0455
3536.50,0.0455
3536.00,0.0455
3535.50,0.0456
3535.00,0.0456
3534.50,0.0457
3534.00,0.0457
3533.50,0.0457
3533.00,0.0457
3532.50,0.0457
3532.00,0.0457
3531.50,0.0457
3531.00,0.0457
3530.50,0.0457
3530.00,0.0456
3529.50,0.0456
3529.00,0.0456
3528.50,0.0456
3528.00,0.0456
3527.50,0.0455
3527.00,0.0455
3526.50,0.0455
3526.00,0.0455
3525.50,0.0454
3525.00,0.0454
3524.50,0.0453
3524.00,0.0453
3523.50,0.0453
3523.00,0.0453
3522.50,0.0453
3522.00,0.0454
3521.50,0.0454
3521.00,0.0455
3520.50,0.0455
3520.00,0.0455
3519.50,0.0455
3519.00,0.0455
3518.50,0.0454
3518.00,0.0454
3517.50,0.0454
3517.00,0.0454
3516.50,0.0454
3516.00,0.0454
3515.50,0.0453
3515.00,0.0453
3514.50,0.0452
3514.00,0.0452
3513.50,0.0452
3513.00,0.0452
3512.50,0.0452
3512.00,0.0452
3511.50,0.0452
3511.00,0.0452
3510.50,0.0452
3510.00,0.0452
3509.50,0.0452
3509.00,0.0451
3508.50,0.0451
3508.00,0.0451
3507.50,0.0451
3507.00,0.0451
3506.50,0.0451
3506.00,0.0451
3505.50,0.0451
3505.00,0.0450
3504.50,0.0450
3504.00,0.0449
3503.50,0.0448
3503.00,0.0447
3502.50,0.0447
3502.00,0.0447
3501.50,0.0448
3501.00,0.0448
3500.50,0.0448
3500.00,0.0448
3499.50,0.0448
3499.00,0.0448
3498.50,0.0448
3498.00,0.0447
3497.50,0.0447
3497.00,0.0447
3496.50,0.0447
3496.00,0.0447
3495.50,0.0447
3495.00,0.0447
3494.50,0.0447
3494.00,0.0447
3493.50,0.0447
3493.00,0.0446
3492.50,0.0446
3492.00,0.0446
3491.50,0.0446
3491.00,0.0446
3490.50,0.0446
3490.00,0.0446
3489.50,0.0445
3489.00,0.0445
3488.50,0.0445
3488.00,0.0444
3487.50,0.0444
3487.00,0.0443
3486.50,0.0443
3486.00,0.0444
3485.50,0.0444
3485.00,0.0444
3484.50,0.0444
3484.00,0.0444
3483.50,0.0444
3483.00,0.0444
3482.50,0.0443
3482.00,0.0443
3481.50,0.0442
3481.00,0.0441
3480.50,0.0441
3480.00,0.0441
3479.50,0.0441
3479.00,0.0441
3478.50,0.0442
3478.00,0.0442
3477.50,0.0442
3477.00,0.0442
3476.50,0.0442
3476.00,0.0442
3475.50,0.0441
3475.00,0.0441
3474.50,0.0441
3474.00,0.0441
3473.50,0.0441
3473.00,0.0441
3472.50,0.0441
3472.00,0.0440
3471.50,0.0440
3471.00,0.0439
3470.50,0.0438
3470.00,0.0438
3469.50,0.0437
3469.00,0.0437
3468.50,0.0437
3468.00,0.0437
3467.50,0.0437
3467.00,0.0437
3466.50,0.0437
3466.00,0.0437
3465.50,0.0437
3465.00,0.0437
3464.50,0.0437
3464.00,0.0437
3463.50,0.0437
3463.00,0.0437
3462.50,0.0437
3462.00,0.0436
3461.50,0.0436
3461.00,0.0435
3460.50,0.0435
3460.00,0.0435
3459.50,0.0435
3459.00,0.0435
3458.50,0.0436
3458.00,0.0436
3457.50,0.0436
3457.00,0.0435
3456.50,0.0435
3456.00,0.0435
3455.50,0.0435
3455.00,0.0434
3454.50,0.0434
3454.00,0.0434
3453.50,0.0434
3453.00,0.0434
3452.50,0.0434
3452.00,0.0434
3451.50,0.0434
3451.00,0.0433
3450.50,0.0433
3450.00,0.0433
3449.50,0.0433
3449.00,0.0432
3448.50,0.0432
3448.00,0.0431
3447.50,0.0431
3447.00,0.0431
3446.50,0.0430
3446.00,0.0431
3445.50,0.0431
3445.00,0.0431
3444.50,0.0431
3444.00,0.0431
3443.50,0.0430
3443.00,0.0430
3442.50,0.0430
3442.00,0.0430
3441.50,0.0430
3441.00,0.0429
3440.50,0.0429
3440.00,0.0429
3439.50,0.0429
3439.00,0.0428
3438.50,0.0427
3438.00,0.0427
3437.50,0.0426
3437.00,0.0426
3436.50,0.0426
3436.00,0.0426
3435.50,0.0425
3435.00,0.0425
3434.50,0.0425
3434.00,0.0426
3433.50,0.0426
3433.00,0.0426
3432.50,0.0426
3432.00,0.0426
3431.50,0.0425
3431.00,0.0425
3430.50,0.0424
3430.00,0.0424
3429.50,0.0424
3429.00,0.0425
3428.50,0.0425
3428.00,0.0425
3427.50,0.0425
3427.00,0.0425
3426.50,0.0425
3426.00,0.0425
3425.50,0.0425
3425.00,0.0425
3424.50,0.0425
3424.00,0.0425
3423.50,0.0425
3423.00,0.0425
3422.50,0.0424
3422.00,0.0424
3421.50,0.0423
3421.00,0.0423
3420.50,0.0423
3420.00,0.0423
3419.50,0.0423
3419.00,0.0423
3418.50,0.0423
3418.00,0.0423
3417.50,0.0423
3417.00,0.0423
3416.50,0.0423
3416.00,0.0422
3415.50,0.0422
3415.00,0.0422
3414.50,0.0421
3414.00,0.0421
3413.50,0.0421
3413.00,0.0420
3412.50,0.0420
3412.00,0.0421
3411.50,0.0421
3411.00,0.0421
3410.50,0.0421
3410.00,0.0420
3409.50,0.0420
3409.00,0.0420
3408.50,0.0420
3408.00,0.0420
3407.50,0.0420
3407.00,0.0420
3406.50,0.0420
3406.00,0.0420
3405.50,0.0420
3405.00,0.0420
3404.50,0.0419
3404.00,0.0419
3403.50,0.0419
3403.00,0.0418
3402.50,0.0417
3402.00,0.0417
3401.50,0.0417
3401.00,0.0416
3400.50,0.0416
3400.00,0.0416
3399.50,0.0417
3399.00,0.0417
3398.50,0.0417
3398.00,0.0418
3397.50,0.0418
3397.00,0.0418
3396.50,0.0418
3396.00,0.0417
3395.50,0.0417
3395.00,0.0417
3394.50,0.0417
3394.00,0.0417
3393.50,0.0416
3393.00,0.0416
3392.50,0.0415
3392.00,0.0415
3391.50,0.0415
3391.00,0.0415
3390.50,0.0416
3390.00,0.0416
3389.50,0.0417
3389.00,0.0417
3388.50,0.0417
3388.00,0.0417
3387.50,0.0417
3387.00,0.0417
3386.50,0.0417
3386.00,0.0417
3385.50,0.0417
3385.00,0.0417
3384.50,0.0416
3384.00,0.0416
3383.50,0.0416
3383.00,0.0416
3382.50,0.0416
3382.00,0.0416
3381.50,0.0416
3381.00,0.0416
3380.50,0.0415
3380.00,0.0415
3379.50,0.0416
3379.00,0.0416
3378.50,0.0416
3378.00,0.0416
3377.50,0.0415
3377.00,0.0415
3376.50,0.0415
3376.00,0.0415
3375.50,0.0415
3375.00,0.0415
3374.50,0.0415
3374.00,0.0415
3373.50,0.0415
3373.00,0.0415
3372.50,0.0415
3372.00,0.0414
3371.50,0.0414
3371.00,0.0413
3370.50,0.0413
3370.00,0.0413
3369.50,0.0413
3369.00,0.0413
3368.50,0.0413
3368.00,0.0413
3367.50,0.0413
3367.00,0.0413
3366.50,0.0413
3366.00,0.0413
3365.50,0.0414
3365.00,0.0414
3364.50,0.0415
3364.00,0.0415
3363.50,0.0415
3363.00,0.0415
3362.50,0.0415
3362.00,0.0414
3361.50,0.0414
3361.00,0.0414
3360.50,0.0414
3360.00,0.0414
3359.50,0.0415
3359.00,0.0415
3358.50,0.0415
3358.00,0.0415
3357.50,0.0415
3357.00,0.0415
3356.50,0.0415
3356.00,0.0415
3355.50,0.0415
3355.00,0.0415
3354.50,0.0415
3354.00,0.0415
3353.50,0.0414
3353.00,0.0414
3352.50,0.0414
3352.00,0.0413
3351.50,0.0413
3351.00,0.0412
3350.50,0.0412
3350.00,0.0413
3349.50,0.0413
3349.00,0.0414
3348.50,0.0414
3348.00,0.0414
3347.50,0.0414
3347.00,0.0414
3346.50,0.0414
3346.00,0.0414
3345.50,0.0414
3345.00,0.0414
3344.50,0.0413
3344.00,0.0413
3343.50,0.0413
3343.00,0.0413
3342.50,0.0413
3342.00,0.0413
3341.50,0.0413
3341.00,0.0413
3340.50,0.0413
3340.00,0.0412
3339.50,0.0412
3339.00,0.0412
3338.50,0.0412
3338.00,0.0412
3337.50,0.0412
3337.00,0.0412
3336.50,0.0413
3336.00,0.0413
3335.50,0.0413
3335.00,0.0413
3334.50,0.0413
3334.00,0.0414
3333.50,0.0413
3333.00,0.0413
3332.50,0.0413
3332.00,0.0413
3331.50,0.0413
3331.00,0.0413
3330.50,0.0413
3330.00,0.0413
3329.50,0.0413
3329.00,0.0413
3328.50,0.0413
3328.00,0.0412
3327.50,0.0412
3327.00,0.0411
3326.50,0.0411
3326.00,0.0411
3325.50,0.0411
3325.00,0.0411
3324.50,0.0411
3324.00,0.0411
3323.50,0.0411
3323.00,0.0411
3322.50,0.0412
3322.00,0.0412
3321.50,0.0412
3321.00,0.0412
3320.50,0.0412
3320.00,0.0411
3319.50,0.0411
3319.00,0.0411
3318.50,0.0411
3318.00,0.0411
3317.50,0.0411
3317.00,0.0411
3316.50,0.0411
3316.00,0.0411
3315.50,0.0411
3315.00,0.0411
3314.50,0.0411
3314.00,0.0411
3313.50,0.0411
3313.00,0.0411
3312.50,0.0410
3312.00,0.0410
3311.50,0.0410
3311.00,0.0410
3310.50,0.0409
3310.00,0.0409
3309.50,0.0408
3309.00,0.0408
3308.50,0.0408
3308.00,0.0408
3307.50,0.0408
3307.00,0.0408
3306.50,0.0408
3306.00,0.0408
3305.50,0.0408
3305.00,0.0408
3304.50,0.0408
3304.00,0.0409
3303.50,0.0409
3303.00,0.0410
3302.50,0.0410
3302.00,0.0410
3301.50,0.0410
3301.00,0.0410
3300.50,0.0410
3300.00,0.0410
3299.50,0.0410
3299.00,0.0410
3298.50,0.0410
3298.00,0.0409
3297.50,0.0409
3297.00,0.0409
3296.50,0.0408
3296.00,0.0408
3295.50,0.0408
3295.00,0.0408
3294.50,0.0408
3294.00,0.0409
3293.50,0.0408
3293.00,0.0408
3292.50,0.0408
3292.00,0.0408
3291.50,0.0408
3291.00,0.0408
3290.50,0.0409
3290.00,0.0409
3289.50,0.0409
3289.00,0.0409
3288.50,0.0409
3288.00,0.0410
3287.50,0.0410
3287.00,0.0410
3286.50,0.0410
3286.00,0.0410
3285.50,0.0409
3285.00,0.0409
3284.50,0.0409
3284.00,0.0409
3283.50,0.0409
3283.00,0.0409
3282.50,0.0409
3282.00,0.0409
3281.50,0.0409
3281.00,0.0409
3280.50,0.0409
3280.00,0.0410
3279.50,0.0410
3279.00,0.0410
3278.50,0.0410
3278.00,0.0410
3277.50,0.0409
3277.00,0.0409
3276.50,0.0409
3276.00,0.0408
3275.50,0.0408
3275.00,0.0408
3274.50,0.0408
3274.00,0.0408
3273.50,0.0408
3273.00,0.0408
3272.50,0.0408
3272.00,0.0407
3271.50,0.0407
3271.00,0.0407
3270.50,0.0407
3270.00,0.0408
3269.50,0.0408
3269.00,0.0409
3268.50,0.0409
3268.00,0.0409
3267.50,0.0410
3267.00,0.0410
3266.50,0.0410
3266.00,0.0410
3265.50,0.0410
3265.00,0.0410
3264.50,0.0410
3264.00,0.0410
3263.50,0.0410
3263.00,0.0410
3262.50,0.0410
3262.00,0.0410
3261.50,0.0410
3261.00,0.0410
3260.50,0.0410
3260.00,0.0410
3259.50,0.0410
3259.00,0.0410
3258.50,0.0410
3258.00,0.0410
3257.50,0.0409
3257.00,0.0409
3256.50,0.0409
3256.00,0.0409
3255.50,0.0409
3255.00,0.0409
3254.50,0.0409
3254.00,0.0410
3253.50,0.0410
3253.00,0.0410
3252.50,0.0410
3252.00,0.0410
3251.50,0.0410
3251.00,0.0410
3250.50,0.0410
3250.00,0.0410
3249.50,0.0410
3249.00,0.0410
3248.50,0.0409
3248.00,0.0409
3247.50,0.0409
3247.00,0.0409
3246.50,0.0409
3246.00,0.0410
3245.50,0.0410
3245.00,0.0410
3244.50,0.0410
3244.00,0.0411
3243.50,0.0411
3243.00,0.0411
3242.50,0.0411
3242.00,0.0411
3241.50,0.0411
3241.00,0.0411
3240.50,0.0411
3240.00,0.0411
3239.50,0.0412
3239.00,0.0411
3238.50,0.0411
3238.00,0.0411
3237.50,0.0411
3237.00,0.0411
3236.50,0.0411
3236.00,0.0411
3235.50,0.0411
3235.00,0.0410
3234.50,0.0410
3234.00,0.0410
3233.50,0.0409
3233.00,0.0410
3232.50,0.0410
3232.00,0.0411
3231.50,0.0411
3231.00,0.0412
3230.50,0.0412
3230.00,0.0412
3229.50,0.0412
3229.00,0.0412
3228.50,0.0412
3228.00,0.0412
3227.50,0.0412
3227.00,0.0413
3226.50,0.0413
3226.00,0.0413
3225.50,0.0413
3225.00,0.0413
3224.50,0.0413
3224.00,0.0413
3223.50,0.0413
3223.00,0.0413
3222.50,0.0413
3222.00,0.0413
3221.50,0.0413
3221.00,0.0413
3220.50,0.0413
3220.00,0.0413
3219.50,0.0413
3219.00,0.0413
3218.50,0.0413
3218.00,0.0413
3217.50,0.0414
3217.00,0.0414
3216.50,0.0414
3216.00,0.0414
3215.50,0.0414
3215.00,0.0414
3214.50,0.0414
3214.00,0.0414
3213.50,0.0414
3213.00,0.0414
3212.50,0.0414
3212.00,0.0415
3211.50,0.0415
3211.00,0.0415
3210.50,0.0415
3210.00,0.0415
3209.50,0.0415
3209.00,0.0415
3208.50,0.0415
3208.00,0.0415
3207.50,0.0415
3207.00,0.0415
3206.50,0.0415
3206.00,0.0415
3205.50,0.0415
3205.00,0.0416
3204.50,0.0416
3204.00,0.0416
3203.50,0.0416
3203.00,0.0416
3202.50,0.0416
3202.00,0.0416
3201.50,0.0417
3201.00,0.0417
3200.50,0.0417
3200.00,0.0417
3199.50,0.0417
3199.00,0.0417
3198.50,0.0417
3198.00,0.0417
3197.50,0.0418
3197.00,0.0418
3196.50,0.0418
3196.00,0.0418
3195.50,0.0418
3195.00,0.0418
3194.50,0.0419
3194.00,0.0419
3193.50,0.0419
3193.00,0.0419
3192.50,0.0419
3192.00,0.0419
3191.50,0.0420
3191.00,0.0420
3190.50,0.0420
3190.00,0.0420
3189.50,0.0421
3189.00,0.0421
3188.50,0.0421
3188.00,0.0421
3187.50,0.0422
3187.00,0.0422
3186.50,0.0422
3186.00,0.0422
3185.50,0.0422
3185.00,0.0422
3184.50,0.0422
3184.00,0.0422
3183.50,0.0422
3183.00,0.0422
3182.50,0.0422
3182.00,0.0422
3181.50,0.0422
3181.00,0.0422
3180.50,0.0422
3180.00,0.0422
3179.50,0.0422
3179.00,0.0422
3178.50,0.0422
3178.00,0.0422
3177.50,0.0422
3177.00,0.0422
3176.50,0.0422
3176.00,0.0422
3175.50,0.0422
3175.00,0.0422
3174.50,0.0422
3174.00,0.0422
3173.50,0.0423
3173.00,0.0423
3172.50,0.0423
3172.00,0.0423
3171.50,0.0423
3171.00,0.0423
3170.50,0.0424
3170.00,0.0424
3169.50,0.0424
3169.00,0.0424
3168.50,0.0424
3168.00,0.0424
3167.50,0.0424
3167.00,0.0425
3166.50,0.0425
3166.00,0.0425
3165.50,0.0425
3165.00,0.0426
3164.50,0.0426
3164.00,0.0426
3163.50,0.0426
3163.00,0.0426
3162.50,0.0426
3162.00,0.0427
3161.50,0.0427
3161.00,0.0427
3160.50,0.0428
3160.00,0.0428
3159.50,0.0428
3159.00,0.0428
3158.50,0.0429
3158.00,0.0429
3157.50,0.0429
3157.00,0.0429
3156.50,0.0429
3156.00,0.0430
3155.50,0.0430
3155.00,0.0430
3154.50,0.0430
3154.00,0.0430
3153.50,0.0429
3153.00,0.0429
3152.50,0.0429
3152.00,0.0430
3151.50,0.0431
3151.00,0.0432
3150.50,0.0432
3150.00,0.0433
3149.50,0.0434
3149.00,0.0434
3148.50,0.0434
3148.00,0.0435
3147.50,0.0435
3147.00,0.0436
3146.50,0.0436
3146.00,0.0436
3145.50,0.0437
3145.00,0.0437
3144.50,0.0438
3144.00,0.0438
3143.50,0.0438
3143.00,0.0439
3142.50,0.0439
3142.00,0.0439
3141.50,0.0440
3141.00,0.0440
3140.50,0.0440
3140.00,0.0440
3139.50,0.0440
3139.00,0.0441
3138.50,0.0442
3138.00,0.0443
3137.50,0.0444
3137.00,0.0445
3136.50,0.0446
3136.00,0.0446
3135.50,0.0447
3135.00,0.0448
3134.50,0.0448
3134.00,0.0449
3133.50,0.0449
3133.00,0.0450
3132.50,0.0450
3132.00,0.0451
3131.50,0.0451
3131.00,0.0452
3130.50,0.0452
3130.00,0.0453
3129.50,0.0453
3129.00,0.0454
3128.50,0.0455
3128.00,0.0456
3127.50,0.0457
3127.00,0.0457
3126.50,0.0458
3126.00,0.0459
3125.50,0.0459
3125.00,0.0460
3124.50,0.0460
3124.00,0.0461
3123.50,0.0461
3123.00,0.0462
3122.50,0.0462
3122.00,0.0462
3121.50,0.0462
3121.00,0.0462
3120.50,0.0462
3120.00,0.0463
3119.50,0.0463
3119.00,0.0464
3118.50,0.0464
3118.00,0.0464
3117.50,0.0465
3117.00,0.0465
3116.50,0.0465
3116.00,0.0466
3115.50,0.0466
3115.00,0.0467
3114.50,0.0468
3114.00,0.0469
3113.50,0.0470
3113.00,0.0470
3112.50,0.0471
3112.00,0.0471
3111.50,0.0471
3111.00,0.0471
3110.50,0.0471
3110.00,0.0471
3109.50,0.0471
3109.00,0.0471
3108.50,0.0471
3108.00,0.0471
3107.50,0.0472
3107.00,0.0473
3106.50,0.0473
3106.00,0.0473
3105.50,0.0474
3105.00,0.0474
3104.50,0.0474
3104.00,0.0474
3103.50,0.0474
3103.00,0.0474
3102.50,0.0474
3102.00,0.0474
3101.50,0.0473
3101.00,0.0473
3100.50,0.0473
3100.00,0.0473
3099.50,0.0473
3099.00,0.0474
3098.50,0.0474
3098.00,0.0474
3097.50,0.0475
3097.00,0.0475
3096.50,0.0475
3096.00,0.0475
3095.50,0.0475
3095.00,0.0475
3094.50,0.0475
3094.00,0.0475
3093.50,0.0475
3093.00,0.0475
3092.50,0.0475
3092.00,0.0474
3091.50,0.0474
3091.00,0.0473
3090.50,0.0473
3090.00,0.0473
3089.50,0.0474
3089.00,0.0474
3088.50,0.0474
3088.00,0.0475
3087.50,0.0475
3087.00,0.0475
3086.50,0.0475
3086.00,0.0475
3085.50,0.0475
3085.00,0.0475
3084.50,0.0475
3084.00,0.0475
3083.50,0.0475
3083.00,0.0476
3082.50,0.0476
3082.00,0.0477
3081.50,0.0476
3081.00,0.0476
3080.50,0.0477
3080.00,0.0477
3079.50,0.0477
3079.00,0.0477
3078.50,0.0478
3078.00,0.0478
3077.50,0.0479
3077.00,0.0480
3076.50,0.0481
3076.00,0.0482
3075.50,0.0482
3075.00,0.0483
3074.50,0.0484
3074.00,0.0484
3073.50,0.0485
3073.00,0.0485
3072.50,0.0486
3072.00,0.0486
3071.50,0.0487
3071.00,0.0488
3070.50,0.0488
3070.00,0.0489
3069.50,0.0489
3069.00,0.0489
3068.50,0.0489
3068.00,0.0490
3067.50,0.0491
3067.00,0.0491
3066.50,0.0492
3066.00,0.0494
3065.50,0.0496
3065.00,0.0497
3064.50,0.0498
3064.00,0.0499
3063.50,0.0500
3063.00,0.0502
3062.50,0.0504
3062.00,0.0506
3061.50,0.0507
3061.00,0.0509
3060.50,0.0511
3060.00,0.0513
3059.50,0.0514
3059.00,0.0516
3058.50,0.0518
3058.00,0.0519
3057.50,0.0521
3057.00,0.0523
3056.50,0.0525
3056.00,0.0526
3055.50,0.0528
3055.00,0.0529
3054.50,0.0530
3054.00,0.0532
3053.50,0.0532
3053.00,0.0533
3052.50,0.0533
3052.00,0.0532
3051.50,0.0531
3051.00,0.0530
3050.50,0.0528
3050.00,0.0527
3049.50,0.0526
3049.00,0.0524
3048.50,0.0522
3048.00,0.0520
3047.50,0.0518
3047.00,0.0515
3046.50,0.0513
3046.00,0.0511
3045.50,0.0509
3045.00,0.0508
3044.50,0.0506
3044.00,0.0505
3043.50,0.0504
3043.00,0.0503
3042.50,0.0502
3042.00,0.0501
3041.50,0.0501
3041.00,0.0501
3040.50,0.0500
3040.00,0.0500
3039.50,0.0500
3039.00,0.0500
3038.50,0.0500
3038.00,0.0500
3037.50,0.0500
3037.00,0.0500
3036.50,0.0499
3036.00,0.0498
3035.50,0.0498
3035.00,0.0497
3034.50,0.0497
3034.00,0.0497
3033.50,0.0498
3033.00,0.0498
3032.50,0.0499
3032.00,0.0499
3031.50,0.0499
3031.00,0.0499
3030.50,0.0500
3030.00,0.0500
3029.50,0.0501
3029.00,0.0502
3028.50,0.0502
3028.00,0.0503
3027.50,0.0504
3027.00,0.0505
3026.50,0.0505
3026.00,0.0505
3025.50,0.0506
3025.00,0.0506
3024.50,0.0507
3024.00,0.0509
3023.50,0.0510
3023.00,0.0512
3022.50,0.0513
3022.00,0.0514
3021.50,0.0516
3021.00,0.0517
3020.50,0.0518
3020.00,0.0519
3019.50,0.0521
3019.00,0.0523
3018.50,0.0524
3018.00,0.0525
3017.50,0.0527
3017.00,0.0528
3016.50,0.0529
3016.00,0.0530
3015.50,0.0531
3015.00,0.0532
3014.50,0.0533
3014.00,0.0534
3013.50,0.0535
3013.00,0.0536
3012.50,0.0537
3012.00,0.0538
3011.50,0.0539
3011.00,0.0541
3010.50,0.0542
3010.00,0.0544
3009.50,0.0546
3009.00,0.0548
3008.50,0.0550
3008.00,0.0552
3007.50,0.0554
3007.00,0.0556
3006.50,0.0558
3006.00,0.0560
3005.50,0.0562
3005.00,0.0565
3004.50,0.0567
3004.00,0.0570
3003.50,0.0573
3003.00,0.0576
3002.50,0.0580
3002.00,0.0583
3001.50,0.0587
3001.00,0.0591
3000.50,0.0595
3000.00,0.0599
2999.50,0.0604
2999.00,0.0608
2998.50,0.0613
2998.00,0.0618
2997.50,0.0623
2997.00,0.0629
2996.50,0.0636
2996.00,0.0643
2995.50,0.0650
2995.00,0.0657
2994.50,0.0664
2994.00,0.0672
2993.50,0.0680
2993.00,0.0689
2992.50,0.0698
2992.00,0.0708
2991.50,0.0719
2991.00,0.0730
2990.50,0.0743
2990.00,0.0755
2989.50,0.0769
2989.00,0.0783
2988.50,0.0798
2988.00,0.0814
2987.50,0.0831
2987.00,0.0849
2986.50,0.0868
2986.00,0.0889
2985.50,0.0910
2985.00,0.0934
2984.50,0.0958
2984.00,0.0985
2983.50,0.1013
2983.00,0.1043
2982.50,0.1075
2982.00,0.1110
2981.50,0.1147
2981.00,0.1187
2980.50,0.1230
2980.00,0.1276
2979.50,0.1326
2979.00,0.1379
2978.50,0.1437
2978.00,0.1499
2977.50,0.1566
2977.00,0.1637
2976.50,0.1714
2976.00,0.1795
2975.50,0.1883
2975.00,0.1977
2974.50,0.2077
2974.00,0.2185
2973.50,0.2300
2973.00,0.2421
2972.50,0.2549
2972.00,0.2685
2971.50,0.2826
2971.00,0.2974
2970.50,0.3128
2970.00,0.3287
2969.50,0.3449
2969.00,0.3614
2968.50,0.3779
2968.00,0.3945
2967.50,0.4106
2967.00,0.4262
2966.50,0.4409
2966.00,0.4545
2965.50,0.4667
2965.00,0.4770
2964.50,0.4853
2964.00,0.4912
2963.50,0.4945
2963.00,0.4952
2962.50,0.4933
2962.00,0.4887
2961.50,0.4815
2961.00,0.4718
2960.50,0.4600
2960.00,0.4464
2959.50,0.4312
2959.00,0.4149
2958.50,0.3978
2958.00,0.3803
2957.50,0.3626
2957.00,0.3451
2956.50,0.3279
2956.00,0.3113
2955.50,0.2953
2955.00,0.2801
2954.50,0.2657
2954.00,0.2521
2953.50,0.2393
2953.00,0.2275
2952.50,0.2165
2952.00,0.2064
2951.50,0.1971
2951.00,0.1885
2950.50,0.1804
2950.00,0.1730
2949.50,0.1660
2949.00,0.1595
2948.50,0.1535
2948.00,0.1478
2947.50,0.1426
2947.00,0.1377
2946.50,0.1332
2946.00,0.1290
2945.50,0.1251
2945.00,0.1214
2944.50,0.1180
2944.00,0.1148
2943.50,0.1119
2943.00,0.1092
2942.50,0.1067
2942.00,0.1044
2941.50,0.1022
2941.00,0.1001
2940.50,0.0981
2940.00,0.0963
2939.50,0.0946
2939.00,0.0929
2938.50,0.0914
2938.00,0.0900
2937.50,0.0886
2937.00,0.0873
2936.50,0.0861
2936.00,0.0850
2935.50,0.0839
2935.00,0.0829
2934.50,0.0820
2934.00,0.0811
2933.50,0.0803
2933.00,0.0795
2932.50,0.0787
2932.00,0.0780
2931.50,0.0773
2931.00,0.0767
2930.50,0.0761
2930.00,0.0755
2929.50,0.0751
2929.00,0.0747
2928.50,0.0744
2928.00,0.0741
2927.50,0.0738
2927.00,0.0735
2926.50,0.0732
2926.00,0.0730
2925.50,0.0729
2925.00,0.0727
2924.50,0.0726
2924.00,0.0726
2923.50,0.0726
2923.00,0.0726
2922.50,0.0726
2922.00,0.0727
2921.50,0.0729
2921.00,0.0731
2920.50,0.0733
2920.00,0.0735
2919.50,0.0738
2919.00,0.0742
2918.50,0.0746
2918.00,0.0752
2917.50,0.0758
2917.00,0.0764
2916.50,0.0772
2916.00,0.0780
2915.50,0.0789
2915.00,0.0799
2914.50,0.0809
2914.00,0.0821
2913.50,0.0834
2913.00,0.0848
2912.50,0.0863
2912.00,0.0878
2911.50,0.0895
2911.00,0.0911
2910.50,0.0928
2910.00,0.0946
2909.50,0.0963
2909.00,0.0979
2908.50,0.0995
2908.00,0.1010
2907.50,0.1024
2907.00,0.1036
2906.50,0.1046
2906.00,0.1053
2905.50,0.1058
2905.00,0.1061
2904.50,0.1061
2904.00,0.1058
2903.50,0.1053
2903.00,0.1046
2902.50,0.1036
2902.00,0.1025
2901.50,0.1012
2901.00,0.0997
2900.50,0.0982
2900.00,0.0965
2899.50,0.0949
2899.00,0.0931
2898.50,0.0914
2898.00,0.0896
2897.50,0.0879
2897.00,0.0862
2896.50,0.0845
2896.00,0.0829
2895.50,0.0814
2895.00,0.0800
2894.50,0.0786
2894.00,0.0773
2893.50,0.0761
2893.00,0.0749
2892.50,0.0737
2892.00,0.0727
2891.50,0.0717
2891.00,0.0707
2890.50,0.0698
2890.00,0.0689
2889.50,0.0681
2889.00,0.0674
2888.50,0.0666
2888.00,0.0659
2887.50,0.0653
2887.00,0.0647
2886.50,0.0641
2886.00,0.0635
2885.50,0.0630
2885.00,0.0624
2884.50,0.0620
2884.00,0.0615
2883.50,0.0611
2883.00,0.0607
2882.50,0.0603
2882.00,0.0599
2881.50,0.0595
2881.00,0.0592
2880.50,0.0588
2880.00,0.0585
2879.50,0.0582
2879.00,0.0579
2878.50,0.0576
2878.00,0.0573
2877.50,0.0570
2877.00,0.0568
2876.50,0.0565
2876.00,0.0562
2875.50,0.0559
2875.00,0.0556
2874.50,0.0554
2874.00,0.0551
2873.50,0.0549
2873.00,0.0547
2872.50,0.0545
2872.00,0.0544
2871.50,0.0542
2871.00,0.0540
2870.50,0.0539
2870.00,0.0537
2869.50,0.0535
2869.00,0.0533
2868.50,0.0532
2868.00,0.0530
2867.50,0.0529
2867.00,0.0527
2866.50,0.0526
2866.00,0.0525
2865.50,0.0523
2865.00,0.0522
2864.50,0.0521
2864.00,0.0520
2863.50,0.0519
2863.00,0.0518
2862.50,0.0517
2862.00,0.0516
2861.50,0.0515
2861.00,0.0514
2860.50,0.0513
2860.00,0.0512
2859.50,0.0512
2859.00,0.0511
2858.50,0.0511
2858.00,0.0511
2857.50,0.0510
2857.00,0.0510
2856.50,0.0510
2856.00,0.0509
2855.50,0.0509
2855.00,0.0509
2854.50,0.0509
2854.00,0.0508
2853.50,0.0508
2853.00,0.0508
2852.50,0.0507
2852.00,0.0507
2851.50,0.0507
2851.00,0.0507
2850.50,0.0506
2850.00,0.0506
2849.50,0.0505
2849.00,0.0504
2848.50,0.0504
2848.00,0.0503
2847.50,0.0503
2847.00,0.0503
2846.50,0.0502
2846.00,0.0502
2845.50,0.0502
2845.00,0.0501
2844.50,0.0501
2844.00,0.0500
2843.50,0.0500
2843.00,0.0499
2842.50,0.0499
2842.00,0.0498
2841.50,0.0498
2841.00,0.0497
2840.50,0.0496
2840.00,0.0496
2839.50,0.0495
2839.00,0.0494
2838.50,0.0494
2838.00,0.0494
2837.50,0.0493
2837.00,0.0493
2836.50,0.0493
2836.00,0.0492
2835.50,0.0491
2835.00,0.0491
2834.50,0.0490
2834.00,0.0490
2833.50,0.0490
2833.00,0.0489
2832.50,0.0488
2832.00,0.0488
2831.50,0.0487
2831.00,0.0487
2830.50,0.0486
2830.00,0.0486
2829.50,0.0485
2829.00,0.0485
2828.50,0.0485
2828.00,0.0485
2827.50,0.0484
2827.00,0.0484
2826.50,0.0484
2826.00,0.0483
2825.50,0.0483
2825.00,0.0483
2824.50,0.0483
2824.00,0.0483
2823.50,0.0483
2823.00,0.0483
2822.50,0.0483
2822.00,0.0483
2821.50,0.0484
2821.00,0.0484
2820.50,0.0484
2820.00,0.0484
2819.50,0.0485
2819.00,0.0485
2818.50,0.0485
2818.00,0.0485
2817.50,0.0486
2817.00,0.0486
2816.50,0.0486
2816.00,0.0487
2815.50,0.0487
2815.00,0.0487
2814.50,0.0487
2814.00,0.0487
2813.50,0.0488
2813.00,0.0488
2812.50,0.0488
2812.00,0.0488
2811.50,0.0487
2811.00,0.0487
2810.50,0.0487
2810.00,0.0487
2809.50,0.0487
2809.00,0.0487
2808.50,0.0487
2808.00,0.0487
2807.50,0.0487
2807.00,0.0487
2806.50,0.0487
2806.00,0.0486
2805.50,0.0486
2805.00,0.0486
2804.50,0.0486
2804.00,0.0485
2803.50,0.0485
2803.00,0.0485
2802.50,0.0485
2802.00,0.0485
2801.50,0.0484
2801.00,0.0484
2800.50,0.0484
2800.00,0.0483
2799.50,0.0483
2799.00,0.0482
2798.50,0.0482
2798.00,0.0481
2797.50,0.0481
2797.00,0.0481
2796.50,0.0481
2796.00,0.0480
2795.50,0.0480
2795.00,0.0479
2794.50,0.0479
2794.00,0.0478
2793.50,0.0477
2793.00,0.0476
2792.50,0.0475
2792.00,0.0474
2791.50,0.0472
2791.00,0.0471
2790.50,0.0470
2790.00,0.0468
2789.50,0.0466
2789.00,0.0465
2788.50,0.0463
2788.00,0.0462
2787.50,0.0460
2787.00,0.0458
2786.50,0.0457
2786.00,0.0455
2785.50,0.0453
2785.00,0.0451
2784.50,0.0449
2784.00,0.0447
2783.50,0.0445
2783.00,0.0444
2782.50,0.0442
2782.00,0.0440
2781.50,0.0438
2781.00,0.0436
2780.50,0.0435
2780.00,0.0433
2779.50,0.0432
2779.00,0.0430
2778.50,0.0429
2778.00,0.0427
2777.50,0.0426
2777.00,0.0424
2776.50,0.0423
2776.00,0.0421
2775.50,0.0420
2775.00,0.0419
2774.50,0.0418
2774.00,0.0417
2773.50,0.0416
2773.00,0.0415
2772.50,0.0414
2772.00,0.0414
2771.50,0.0413
2771.00,0.0412
2770.50,0.0411
2770.00,0.0410
2769.50,0.0409
2769.00,0.0409
2768.50,0.0408
2768.00,0.0407
2767.50,0.0406
2767.00,0.0406
2766.50,0.0405
2766.00,0.0405
2765.50,0.0404
2765.00,0.0404
2764.50,0.0403
2764.00,0.0402
2763.50,0.0402
2763.00,0.0401
2762.50,0.0401
2762.00,0.0401
2761.50,0.0400
2761.00,0.0400
2760.50,0.0399
2760.00,0.0399
2759.50,0.0398
2759.00,0.0398
2758.50,0.0398
2758.00,0.0397
2757.50,0.0397
2757.00,0.0396
2756.50,0.0396
2756.00,0.0396
2755.50,0.0395
2755.00,0.0395
2754.50,0.0395
2754.00,0.0395
2753.50,0.0394
2753.00,0.0394
2752.50,0.0394
2752.00,0.0393
2751.50,0.0393
2751.00,0.0392
2750.50,0.0392
2750.00,0.0392
2749.50,0.0392
2749.00,0.0391
2748.50,0.0391
2748.00,0.0390
2747.50,0.0390
2747.00,0.0390
2746.50,0.0390
2746.00,0.0390
2745.50,0.0390
2745.00,0.0390
2744.50,0.0390
2744.00,0.0390
2743.50,0.0389
2743.00,0.0389
2742.50,0.0389
2742.00,0.0388
2741.50,0.0388
2741.00,0.0388
2740.50,0.0388
2740.00,0.0388
2739.50,0.0387
2739.00,0.0387
2738.50,0.0387
2738.00,0.0387
2737.50,0.0386
2737.00,0.0386
2736.50,0.0386
2736.00,0.0386
2735.50,0.0386
2735.00,0.0386
2734.50,0.0386
2734.00,0.0386
2733.50,0.0386
2733.00,0.0386
2732.50,0.0386
2732.00,0.0386
2731.50,0.0386
2731.00,0.0386
2730.50,0.0386
2730.00,0.0385
2729.50,0.0385
2729.00,0.0385
2728.50,0.0385
2728.00,0.0384
2727.50,0.0384
2727.00,0.0384
2726.50,0.0383
2726.00,0.0383
2725.50,0.0384
2725.00,0.0384
2724.50,0.0384
2724.00,0.0384
2723.50,0.0384
2723.00,0.0384
2722.50,0.0383
2722.00,0.0383
2721.50,0.0384
2721.00,0.0384
2720.50,0.0384
2720.00,0.0384
2719.50,0.0384
2719.00,0.0384
2718.50,0.0384
2718.00,0.0384
2717.50,0.0384
2717.00,0.0384
2716.50,0.0384
2716.00,0.0384
2715.50,0.0384
2715.00,0.0384
2714.50,0.0384
2714.00,0.0384
2713.50,0.0384
2713.00,0.0384
2712.50,0.0384
2712.00,0.0383
2711.50,0.0383
2711.00,0.0383
2710.50,0.0383
2710.00,0.0383
2709.50,0.0383
2709.00,0.0383
2708.50,0.0383
2708.00,0.0383
2707.50,0.0383
2707.00,0.0384
2706.50,0.0383
2706.00,0.0383
2705.50,0.0383
2705.00,0.0383
2704.50,0.0383
2704.00,0.0383
2703.50,0.0383
2703.00,0.0383
2702.50,0.0383
2702.00,0.0383
2701.50,0.0383
2701.00,0.0383
2700.50,0.0383
2700.00,0.0383
2699.50,0.0382
2699.00,0.0382
2698.50,0.0382
2698.00,0.0382
2697.50,0.0382
2697.00,0.0382
2696.50,0.0382
2696.00,0.0382
2695.50,0.0382
2695.00,0.0382
2694.50,0.0382
2694.00,0.0382
2693.50,0.0382
2693.00,0.0382
2692.50,0.0382
2692.00,0.0382
2691.50,0.0382
2691.00,0.0382
2690.50,0.0382
2690.00,0.0382
2689.50,0.0382
2689.00,0.0382
2688.50,0.0382
2688.00,0.0382
2687.50,0.0382
2687.00,0.0382
2686.50,0.0382
2686.00,0.0382
2685.50,0.0382
2685.00,0.0382
2684.50,0.0382
2684.00,0.0382
2683.50,0.0383
2683.00,0.0383
2682.50,0.0383
2682.00,0.0382
2681.50,0.0382
2681.00,0.0382
2680.50,0.0383
2680.00,0.0383
2679.50,0.0383
2679.00,0.0384
2678.50,0.0384
2678.00,0.0384
2677.50,0.0385
2677.00,0.0385
2676.50,0.0386
2676.00,0.0386
2675.50,0.0387
2675.00,0.0387
2674.50,0.0387
2674.00,0.0387
2673.50,0.0388
2673.00,0.0388
2672.50,0.0389
2672.00,0.0389
2671.50,0.0390
2671.00,0.0390
2670.50,0.0390
2670.00,0.0391
2669.50,0.0391
2669.00,0.0391
2668.50,0.0392
2668.00,0.0392
2667.50,0.0392
2667.00,0.0393
2666.50,0.0393
2666.00,0.0393
2665.50,0.0393
2665.00,0.0394
2664.50,0.0394
2664.00,0.0394
2663.50,0.0394
2663.00,0.0394
2662.50,0.0394
2662.00,0.0394
2661.50,0.0394
2661.00,0.0394
2660.50,0.0393
2660.00,0.0393
2659.50,0.0393
2659.00,0.0393
2658.50,0.0393
2658.00,0.0392
2657.50,0.0392
2657.00,0.0392
2656.50,0.0391
2656.00,0.0391
2655.50,0.0391
2655.00,0.0390
2654.50,0.0390
2654.00,0.0389
2653.50,0.0389
2653.00,0.0388
2652.50,0.0388
2652.00,0.0387
2651.50,0.0387
2651.00,0.0386
2650.50,0.0386
2650.00,0.0385
2649.50,0.0385
2649.00,0.0384
2648.50,0.0384
2648.00,0.0383
2647.50,0.0383
2647.00,0.0383
2646.50,0.0382
2646.00,0.0382
2645.50,0.0381
2645.00,0.0381
2644.50,0.0380
2644.00,0.0380
2643.50,0.0380
2643.00,0.0379
2642.50,0.0379
2642.00,0.0378
2641.50,0.0378
2641.00,0.0378
2640.50,0.0377
2640.00,0.0377
2639.50,0.0377
2639.00,0.0376
2638.50,0.0376
2638.00,0.0376
2637.50,0.0375
2637.00,0.0375
2636.50,0.0375
2636.00,0.0375
2635.50,0.0374
2635.00,0.0374
2634.50,0.0374
2634.00,0.0374
2633.50,0.0373
2633.00,0.0373
2632.50,0.0373
2632.00,0.0373
2631.50,0.0373
2631.00,0.0372
2630.50,0.0372
2630.00,0.0372
2629.50,0.0372
2629.00,0.0372
2628.50,0.0371
2628.00,0.0371
2627.50,0.0371
2627.00,0.0371
2626.50,0.0371
2626.00,0.0370
2625.50,0.0370
2625.00,0.0370
2624.50,0.0370
2624.00,0.0370
2623.50,0.0370
2623.00,0.0370
2622.50,0.0370
2622.00,0.0370
2621.50,0.0370
2621.00,0.0369
2620.50,0.0369
2620.00,0.0369
2619.50,0.0369
2619.00,0.0369
2618.50,0.0369
2618.00,0.0369
2617.50,0.0369
2617.00,0.0369
2616.50,0.0369
2616.00,0.0369
2615.50,0.0369
2615.00,0.0369
2614.50,0.0369
2614.00,0.0369
2613.50,0.0369
2613.00,0.0369
2612.50,0.0368
2612.00,0.0368
2611.50,0.0368
2611.00,0.0368
2610.50,0.0368
2610.00,0.0368
2609.50,0.0368
2609.00,0.0368
2608.50,0.0368
2608.00,0.0368
2607.50,0.0368
2607.00,0.0367
2606.50,0.0367
2606.00,0.0367
2605.50,0.0367
2605.00,0.0367
2604.50,0.0367
2604.00,0.0367
2603.50,0.0367
2603.00,0.0367
2602.50,0.0367
2602.00,0.0367
2601.50,0.0367
2601.00,0.0367
2600.50,0.0366
2600.00,0.0366
2599.50,0.0366
2599.00,0.0366
2598.50,0.0366
2598.00,0.0366
2597.50,0.0366
2597.00,0.0366
2596.50,0.0366
2596.00,0.0366
2595.50,0.0366
2595.00,0.0366
2594.50,0.0366
2594.00,0.0366
2593.50,0.0366
2593.00,0.0366
2592.50,0.0366
2592.00,0.0366
2591.50,0.0366
2591.00,0.0366
2590.50,0.0366
2590.00,0.0366
2589.50,0.0366
2589.00,0.0365
2588.50,0.0365
2588.00,0.0365
2587.50,0.0365
2587.00,0.0365
2586.50,0.0365
2586.00,0.0365
2585.50,0.0365
2585.00,0.0365
2584.50,0.0365
2584.00,0.0365
2583.50,0.0365
2583.00,0.0365
2582.50,0.0365
2582.00,0.0365
2581.50,0.0365
2581.00,0.0365
2580.50,0.0365
2580.00,0.0365
2579.50,0.0365
2579.00,0.0365
2578.50,0.0365
2578.00,0.0365
2577.50,0.0365
2577.00,0.0364
2576.50,0.0364
2576.00,0.0364
2575.50,0.0364
2575.00,0.0364
2574.50,0.0364
2574.00,0.0364
2573.50,0.0364
2573.00,0.0364
2572.50,0.0364
2572.00,0.0364
2571.50,0.0364
2571.00,0.0364
2570.50,0.0364
2570.00,0.0364
2569.50,0.0364
2569.00,0.0364
2568.50,0.0364
2568.00,0.0364
2567.50,0.0364
2567.00,0.0363
2566.50,0.0363
2566.00,0.0363
2565.50,0.0363
2565.00,0.0363
2564.50,0.0363
2564.00,0.0363
2563.50,0.0363
2563.00,0.0363
2562.50,0.0363
2562.00,0.0363
2561.50,0.0363
2561.00,0.0364
2560.50,0.0364
2560.00,0.0364
2559.50,0.0363
2559.00,0.0363
2558.50,0.0363
2558.00,0.0363
2557.50,0.0363
2557.00,0.0363
2556.50,0.0363
2556.00,0.0363
2555.50,0.0363
2555.00,0.0363
2554.50,0.0363
2554.00,0.0363
2553.50,0.0363
2553.00,0.0363
2552.50,0.0363
2552.00,0.0363
2551.50,0.0363
2551.00,0.0363
2550.50,0.0363
2550.00,0.0363
2549.50,0.0363
2549.00,0.0362
2548.50,0.0362
2548.00,0.0362
2547.50,0.0362
2547.00,0.0362
2546.50,0.0362
2546.00,0.0362
2545.50,0.0362
2545.00,0.0362
2544.50,0.0362
2544.00,0.0362
2543.50,0.0362
2543.00,0.0362
2542.50,0.0361
2542.00,0.0361
2541.50,0.0361
2541.00,0.0361
2540.50,0.0361
2540.00,0.0361
2539.50,0.0361
2539.00,0.0360
2538.50,0.0360
2538.00,0.0360
2537.50,0.0360
2537.00,0.0360
2536.50,0.0360
2536.00,0.0360
2535.50,0.0360
2535.00,0.0360
2534.50,0.0360
2534.00,0.0360
2533.50,0.0360
2533.00,0.0360
2532.50,0.0360
2532.00,0.0360
2531.50,0.0360
2531.00,0.0360
2530.50,0.0360
2530.00,0.0360
2529.50,0.0360
2529.00,0.0360
2528.50,0.0360
2528.00,0.0360
2527.50,0.0360
2527.00,0.0360
2526.50,0.0360
2526.00,0.0360
2525.50,0.0360
2525.00,0.0360
2524.50,0.0360
2524.00,0.0360
2523.50,0.0360
2523.00,0.0360
2522.50,0.0360
2522.00,0.0361
2521.50,0.0361
2521.00,0.0361
2520.50,0.0361
2520.00,0.0361
2519.50,0.0361
2519.00,0.0361
2518.50,0.0361
2518.00,0.0361
2517.50,0.0361
2517.00,0.0362
2516.50,0.0362
2516.00,0.0362
2515.50,0.0362
2515.00,0.0362
2514.50,0.0363
2514.00,0.0363
2513.50,0.0363
2513.00,0.0364
2512.50,0.0364
2512.00,0.0364
2511.50,0.0364
2511.00,0.0365
2510.50,0.0365
2510.00,0.0366
2509.50,0.0367
2509.00,0.0367
2508.50,0.0368
2508.00,0.0369
2507.50,0.0370
2507.00,0.0371
2506.50,0.0372
2506.00,0.0373
2505.50,0.0374
2505.00,0.0375
2504.50,0.0376
2504.00,0.0377
2503.50,0.0379
2503.00,0.0380
2502.50,0.0381
2502.00,0.0382
2501.50,0.0384
2501.00,0.0384
2500.50,0.0385
2500.00,0.0386
2499.50,0.0386
2499.00,0.0386
2498.50,0.0386
2498.00,0.0386
2497.50,0.0386
2497.00,0.0385
2496.50,0.0384
2496.00,0.0384
2495.50,0.0383
2495.00,0.0382
2494.50,0.0382
2494.00,0.0381
2493.50,0.0380
2493.00,0.0379
2492.50,0.0378
2492.00,0.0378
2491.50,0.0377
2491.00,0.0376
2490.50,0.0375
2490.00,0.0374
2489.50,0.0374
2489.00,0.0373
2488.50,0.0372
2488.00,0.0372
2487.50,0.0371
2487.00,0.0371
2486.50,0.0370
2486.00,0.0370
2485.50,0.0369
2485.00,0.0369
2484.50,0.0368
2484.00,0.0368
2483.50,0.0367
2483.00,0.0367
2482.50,0.0366
2482.00,0.0366
2481.50,0.0366
2481.00,0.0365
2480.50,0.0365
2480.00,0.0365
2479.50,0.0365
2479.00,0.0365
2478.50,0.0365
2478.00,0.0364
2477.50,0.0364
2477.00,0.0364
2476.50,0.0364
2476.00,0.0364
2475.50,0.0364
2475.00,0.0363
2474.50,0.0363
2474.00,0.0363
2473.50,0.0363
2473.00,0.0363
2472.50,0.0363
2472.00,0.0363
2471.50,0.0363
2471.00,0.0363
2470.50,0.0363
2470.00,0.0363
2469.50,0.0362
2469.00,0.0362
2468.50,0.0362
2468.00,0.0362
2467.50,0.0362
2467.00,0.0362
2466.50,0.0362
2466.00,0.0362
2465.50,0.0362
2465.00,0.0362
2464.50,0.0362
2464.00,0.0362
2463.50,0.0362
2463.00,0.0361
2462.50,0.0361
2462.00,0.0361
2461.50,0.0361
2461.00,0.0361
2460.50,0.0361
2460.00,0.0361
2459.50,0.0361
2459.00,0.0361
2458.50,0.0361
2458.00,0.0361
2457.50,0.0361
2457.00,0.0361
2456.50,0.0361
2456.00,0.0361
2455.50,0.0360
2455.00,0.0360
2454.50,0.0360
2454.00,0.0360
2453.50,0.0360
2453.00,0.0360
2452.50,0.0360
2452.00,0.0360
2451.50,0.0360
2451.00,0.0360
2450.50,0.0360
2450.00,0.0360
2449.50,0.0360
2449.00,0.0360
2448.50,0.0360
2448.00,0.0360
2447.50,0.0360
2447.00,0.0360
2446.50,0.0360
2446.00,0.0360
2445.50,0.0360
2445.00,0.0360
2444.50,0.0360
2444.00,0.0360
2443.50,0.0360
2443.00,0.0360
2442.50,0.0360
2442.00,0.0360
2441.50,0.0359
2441.00,0.0359
2440.50,0.0359
2440.00,0.0359
2439.50,0.0359
2439.00,0.0359
2438.50,0.0359
2438.00,0.0359
2437.50,0.0359
2437.00,0.0359
2436.50,0.0359
2436.00,0.0359
2435.50,0.0359
2435.00,0.0359
2434.50,0.0359
2434.00,0.0359
2433.50,0.0359
2433.00,0.0359
2432.50,0.0359
2432.00,0.0359
2431.50,0.0359
2431.00,0.0358
2430.50,0.0358
2430.00,0.0358
2429.50,0.0358
2429.00,0.0358
2428.50,0.0358
2428.00,0.0358
2427.50,0.0358
2427.00,0.0358
2426.50,0.0358
2426.00,0.0358
2425.50,0.0358
2425.00,0.0358
2424.50,0.0358
2424.00,0.0358
2423.50,0.0358
2423.00,0.0358
2422.50,0.0358
2422.00,0.0358
2421.50,0.0358
2421.00,0.0358
2420.50,0.0357
2420.00,0.0357
2419.50,0.0357
2419.00,0.0357
2418.50,0.0357
2418.00,0.0358
2417.50,0.0358
2417.00,0.0358
2416.50,0.0358
2416.00,0.0358
2415.50,0.0358
2415.00,0.0358
2414.50,0.0358
2414.00,0.0358
2413.50,0.0358
2413.00,0.0358
2412.50,0.0358
2412.00,0.0358
2411.50,0.0358
2411.00,0.0358
2410.50,0.0358
2410.00,0.0358
2409.50,0.0358
2409.00,0.0358
2408.50,0.0358
2408.00,0.0358
2407.50,0.0358
2407.00,0.0357
2406.50,0.0357
2406.00,0.0358
2405.50,0.0358
2405.00,0.0358
2404.50,0.0358
2404.00,0.0358
2403.50,0.0357
2403.00,0.0357
2402.50,0.0357
2402.00,0.0357
2401.50,0.0357
2401.00,0.0357
2400.50,0.0357
2400.00,0.0357
2399.50,0.0357
2399.00,0.0357
2398.50,0.0357
2398.00,0.0357
2397.50,0.0357
2397.00,0.0357
2396.50,0.0357
2396.00,0.0357
2395.50,0.0357
2395.00,0.0357
2394.50,0.0357
2394.00,0.0357
2393.50,0.0357
2393.00,0.0357
2392.50,0.0357
2392.00,0.0357
2391.50,0.0357
2391.00,0.0357
2390.50,0.0357
2390.00,0.0357
2389.50,0.0357
2389.00,0.0357
2388.50,0.0357
2388.00,0.0357
2387.50,0.0357
2387.00,0.0357
2386.50,0.0357
2386.00,0.0357
2385.50,0.0356
2385.00,0.0356
2384.50,0.0356
2384.00,0.0356
2383.50,0.0356
2383.00,0.0356
2382.50,0.0356
2382.00,0.0356
2381.50,0.0357
2381.00,0.0357
2380.50,0.0357
2380.00,0.0357
2379.50,0.0357
2379.00,0.0358
2378.50,0.0358
2378.00,0.0359
2377.50,0.0359
2377.00,0.0359
2376.50,0.0360
2376.00,0.0360
2375.50,0.0360
2375.00,0.0360
2374.50,0.0360
2374.00,0.0359
2373.50,0.0359
2373.00,0.0359
2372.50,0.0359
2372.00,0.0358
2371.50,0.0358
2371.00,0.0358
2370.50,0.0358
2370.00,0.0358
2369.50,0.0358
2369.00,0.0358
2368.50,0.0358
2368.00,0.0358
2367.50,0.0358
2367.00,0.0359
2366.50,0.0359
2366.00,0.0359
2365.50,0.0359
2365.00,0.0359
2364.50,0.0359
2364.00,0.0359
2363.50,0.0358
2363.00,0.0358
2362.50,0.0358
2362.00,0.0358
2361.50,0.0358
2361.00,0.0358
2360.50,0.0359
2360.00,0.0359
2359.50,0.0359
2359.00,0.0359
2358.50,0.0359
2358.00,0.0358
2357.50,0.0358
2357.00,0.0358
2356.50,0.0358
2356.00,0.0358
2355.50,0.0358
2355.00,0.0359
2354.50,0.0359
2354.00,0.0359
2353.50,0.0359
2353.00,0.0359
2352.50,0.0359
2352.00,0.0360
2351.50,0.0360
2351.00,0.0359
2350.50,0.0358
2350.00,0.0358
2349.50,0.0357
2349.00,0.0358
2348.50,0.0358
2348.00,0.0359
2347.50,0.0360
2347.00,0.0360
2346.50,0.0361
2346.00,0.0360
2345.50,0.0360
2345.00,0.0359
2344.50,0.0359
2344.00,0.0358
2343.50,0.0357
2343.00,0.0357
2342.50,0.0357
2342.00,0.0358
2341.50,0.0358
2341.00,0.0358
2340.50,0.0359
2340.00,0.0360
2339.50,0.0360
2339.00,0.0360
2338.50,0.0360
2338.00,0.0360
2337.50,0.0360
2337.00,0.0359
2336.50,0.0359
2336.00,0.0359
2335.50,0.0359
2335.00,0.0359
2334.50,0.0359
2334.00,0.0359
2333.50,0.0359
2333.00,0.0359
2332.50,0.0359
2332.00,0.0359
2331.50,0.0359
2331.00,0.0359
2330.50,0.0359
2330.00,0.0359
2329.50,0.0359
2329.00,0.0358
2328.50,0.0358
2328.00,0.0358
2327.50,0.0357
2327.00,0.0357
2326.50,0.0358
2326.00,0.0358
2325.50,0.0358
2325.00,0.0357
2324.50,0.0358
2324.00,0.0358
2323.50,0.0358
2323.00,0.0358
2322.50,0.0358
2322.00,0.0358
2321.50,0.0358
2321.00,0.0357
2320.50,0.0357
2320.00,0.0357
2319.50,0.0358
2319.00,0.0358
2318.50,0.0357
2318.00,0.0357
2317.50,0.0357
2317.00,0.0357
2316.50,0.0357
2316.00,0.0357
2315.50,0.0358
2315.00,0.0357
2314.50,0.0357
2314.00,0.0357
2313.50,0.0358
2313.00,0.0358
2312.50,0.0357
2312.00,0.0357
2311.50,0.0357
2311.00,0.0357
2310.50,0.0356
2310.00,0.0356
2309.50,0.0357
2309.00,0.0357
2308.50,0.0356
2308.00,0.0356
2307.50,0.0357
2307.00,0.0357
2306.50,0.0357
2306.00,0.0357
2305.50,0.0357
2305.00,0.0358
2304.50,0.0357
2304.00,0.0357
2303.50,0.0357
2303.00,0.0357
2302.50,0.0357
2302.00,0.0357
2301.50,0.0357
2301.00,0.0358
2300.50,0.0357
2300.00,0.0357
2299.50,0.0358
2299.00,0.0358
2298.50,0.0358
2298.00,0.0358
2297.50,0.0358
2297.00,0.0358
2296.50,0.0358
2296.00,0.0358
2295.50,0.0358
2295.00,0.0359
2294.50,0.0359
2294.00,0.0358
2293.50,0.0358
2293.00,0.0359
2292.50,0.0359
2292.00,0.0359
2291.50,0.0359
2291.00,0.0359
2290.50,0.0359
2290.00,0.0359
2289.50,0.0359
2289.00,0.0359
2288.50,0.0360
2288.00,0.0360
2287.50,0.0360
2287.00,0.0360
2286.50,0.0360
2286.00,0.0360
2285.50,0.0360
2285.00,0.0360
2284.50,0.0360
2284.00,0.0360
2283.50,0.0360
2283.00,0.0360
2282.50,0.0360
2282.00,0.0360
2281.50,0.0360
2281.00,0.0361
2280.50,0.0361
2280.00,0.0361
2279.50,0.0361
2279.00,0.0361
2278.50,0.0361
2278.00,0.0361
2277.50,0.0361
2277.00,0.0361
2276.50,0.0361
2276.00,0.0361
2275.50,0.0362
2275.00,0.0362
2274.50,0.0362
2274.00,0.0362
2273.50,0.0362
2273.00,0.0362
2272.50,0.0362
2272.00,0.0362
2271.50,0.0362
2271.00,0.0362
2270.50,0.0362
2270.00,0.0362
2269.50,0.0362
2269.00,0.0362
2268.50,0.0362
2268.00,0.0362
2267.50,0.0362
2267.00,0.0362
2266.50,0.0362
2266.00,0.0362
2265.50,0.0362
2265.00,0.0362
2264.50,0.0362
2264.00,0.0362
2263.50,0.0362
2263.00,0.0362
2262.50,0.0362
2262.00,0.0362
2261.50,0.0362
2261.00,0.0362
2260.50,0.0362
2260.00,0.0362
2259.50,0.0362
2259.00,0.0362
2258.50,0.0362
2258.00,0.0362
2257.50,0.0362
2257.00,0.0362
2256.50,0.0362
2256.00,0.0362
2255.50,0.0362
2255.00,0.0362
2254.50,0.0362
2254.00,0.0362
2253.50,0.0362
2253.00,0.0362
2252.50,0.0362
2252.00,0.0362
2251.50,0.0362
2251.00,0.0363
2250.50,0.0363
2250.00,0.0363
2249.50,0.0363
2249.00,0.0363
2248.50,0.0363
2248.00,0.0363
2247.50,0.0363
2247.00,0.0363
2246.50,0.0363
2246.00,0.0363
2245.50,0.0364
2245.00,0.0364
2244.50,0.0364
2244.00,0.0364
2243.50,0.0364
2243.00,0.0364
2242.50,0.0364
2242.00,0.0364
2241.50,0.0364
2241.00,0.0364
2240.50,0.0365
2240.00,0.0365
2239.50,0.0365
2239.00,0.0365
2238.50,0.0365
2238.00,0.0365
2237.50,0.0366
2237.00,0.0366
2236.50,0.0366
2236.00,0.0366
2235.50,0.0366
2235.00,0.0367
2234.50,0.0367
2234.00,0.0367
2233.50,0.0367
2233.00,0.0367
2232.50,0.0367
2232.00,0.0367
2231.50,0.0368
2231.00,0.0368
2230.50,0.0368
2230.00,0.0368
2229.50,0.0368
2229.00,0.0369
2228.50,0.0369
2228.00,0.0369
2227.50,0.0369
2227.00,0.0370
2226.50,0.0370
2226.00,0.0370
2225.50,0.0370
2225.00,0.0371
2224.50,0.0371
2224.00,0.0371
2223.50,0.0372
2223.00,0.0372
2222.50,0.0372
2222.00,0.0373
2221.50,0.0373
2221.00,0.0373
2220.50,0.0374
2220.00,0.0374
2219.50,0.0374
2219.00,0.0375
2218.50,0.0375
2218.00,0.0376
2217.50,0.0376
2217.00,0.0377
2216.50,0.0377
2216.00,0.0377
2215.50,0.0378
2215.00,0.0378
2214.50,0.0379
2214.00,0.0379
2213.50,0.0380
2213.00,0.0380
2212.50,0.0381
2212.00,0.0381
2211.50,0.0382
2211.00,0.0383
2210.50,0.0383
2210.00,0.0384
2209.50,0.0385
2209.00,0.0385
2208.50,0.0386
2208.00,0.0387
2207.50,0.0388
2207.00,0.0388
2206.50,0.0389
2206.00,0.0390
2205.50,0.0391
2205.00,0.0392
2204.50,0.0393
2204.00,0.0393
2203.50,0.0394
2203.00,0.0395
2202.50,0.0396
2202.00,0.0397
2201.50,0.0399
2201.00,0.0400
2200.50,0.0401
2200.00,0.0402
2199.50,0.0403
2199.00,0.0404
2198.50,0.0406
2198.00,0.0407
2197.50,0.0408
2197.00,0.0410
2196.50,0.0412
2196.00,0.0413
2195.50,0.0415
2195.00,0.0417
2194.50,0.0418
2194.00,0.0420
2193.50,0.0422
2193.00,0.0424
2192.50,0.0426
2192.00,0.0428
2191.50,0.0430
2191.00,0.0433
2190.50,0.0435
2190.00,0.0437
2189.50,0.0440
2189.00,0.0443
2188.50,0.0445
2188.00,0.0448
2187.50,0.0451
2187.00,0.0454
2186.50,0.0457
2186.00,0.0460
2185.50,0.0464
2185.00,0.0467
2184.50,0.0470
2184.00,0.0474
2183.50,0.0477
2183.00,0.0481
2182.50,0.0485
2182.00,0.0488
2181.50,0.0492
2181.00,0.0496
2180.50,0.0500
2180.00,0.0504
2179.50,0.0509
2179.00,0.0513
2178.50,0.0517
2178.00,0.0521
2177.50,0.0526
2177.00,0.0530
2176.50,0.0534
2176.00,0.0538
2175.50,0.0543
2175.00,0.0547
2174.50,0.0551
2174.00,0.0555
2173.50,0.0559
2173.00,0.0563
2172.50,0.0567
2172.00,0.0571
2171.50,0.0575
2171.00,0.0578
2170.50,0.0582
2170.00,0.0585
2169.50,0.0588
2169.00,0.0591
2168.50,0.0594
2168.00,0.0596
2167.50,0.0599
2167.00,0.0601
2166.50,0.0603
2166.00,0.0605
2165.50,0.0606
2165.00,0.0608
2164.50,0.0609
2164.00,0.0610
2163.50,0.0610
2163.00,0.0611
2162.50,0.0611
2162.00,0.0611
2161.50,0.0610
2161.00,0.0610
2160.50,0.0609
2160.00,0.0608
2159.50,0.0606
2159.00,0.0605
2158.50,0.0603
2158.00,0.0601
2157.50,0.0599
2157.00,0.0596
2156.50,0.0594
2156.00,0.0591
2155.50,0.0588
2155.00,0.0585
2154.50,0.0581
2154.00,0.0578
2153.50,0.0574
2153.00,0.0571
2152.50,0.0567
2152.00,0.0563
2151.50,0.0559
2151.00,0.0555
2150.50,0.0551
2150.00,0.0547
2149.50,0.0542
2149.00,0.0538
2148.50,0.0534
2148.00,0.0530
2147.50,0.0525
2147.00,0.0521
2146.50,0.0517
2146.00,0.0513
2145.50,0.0509
2145.00,0.0505
2144.50,0.0501
2144.00,0.0497
2143.50,0.0493
2143.00,0.0489
2142.50,0.0485
2142.00,0.0481
2141.50,0.0478
2141.00,0.0474
2140.50,0.0471
2140.00,0.0467
2139.50,0.0464
2139.00,0.0461
2138.50,0.0458
2138.00,0.0455
2137.50,0.0452
2137.00,0.0449
2136.50,0.0446
2136.00,0.0444
2135.50,0.0441
2135.00,0.0439
2134.50,0.0436
2134.00,0.0434
2133.50,0.0432
2133.00,0.0430
2132.50,0.0428
2132.00,0.0426
2131.50,0.0424
2131.00,0.0422
2130.50,0.0421
2130.00,0.0419
2129.50,0.0417
2129.00,0.0416
2128.50,0.0414
2128.00,0.0413
2127.50,0.0412
2127.00,0.0410
2126.50,0.0409
2126.00,0.0408
2125.50,0.0407
2125.00,0.0406
2124.50,0.0405
2124.00,0.0404
2123.50,0.0403
2123.00,0.0402
2122.50,0.0401
2122.00,0.0400
2121.50,0.0400
2121.00,0.0399
2120.50,0.0398
2120.00,0.0397
2119.50,0.0397
2119.00,0.0396
2118.50,0.0395
2118.00,0.0395
2117.50,0.0394
2117.00,0.0394
2116.50,0.0393
2116.00,0.0393
2115.50,0.0392
2115.00,0.0391
2114.50,0.0391
2114.00,0.0390
2113.50,0.0390
2113.00,0.0390
2112.50,0.0389
2112.00,0.0389
2111.50,0.0389
2111.00,0.0388
2110.50,0.0388
2110.00,0.0388
2109.50,0.0387
2109.00,0.0387
2108.50,0.0387
2108.00,0.0387
2107.50,0.0386
2107.00,0.0386
2106.50,0.0386
2106.00,0.0386
2105.50,0.0386
2105.00,0.0386
2104.50,0.0385
2104.00,0.0385
2103.50,0.0385
2103.00,0.0385
2102.50,0.0385
2102.00,0.0384
2101.50,0.0384
2101.00,0.0384
2100.50,0.0384
2100.00,0.0384
2099.50,0.0383
2099.00,0.0383
2098.50,0.0383
2098.00,0.0383
2097.50,0.0383
2097.00,0.0383
2096.50,0.0382
2096.00,0.0382
2095.50,0.0382
2095.00,0.0382
2094.50,0.0382
2094.00,0.0382
2093.50,0.0382
2093.00,0.0382
2092.50,0.0381
2092.00,0.0381
2091.50,0.0381
2091.00,0.0381
2090.50,0.0381
2090.00,0.0381
2089.50,0.0381
2089.00,0.0381
2088.50,0.0381
2088.00,0.0381
2087.50,0.0381
2087.00,0.0381
2086.50,0.0381
2086.00,0.0381
2085.50,0.0381
2085.00,0.0381
2084.50,0.0381
2084.00,0.0381
2083.50,0.0381
2083.00,0.0381
2082.50,0.0381
2082.00,0.0381
2081.50,0.0381
2081.00,0.0381
2080.50,0.0381
2080.00,0.0381
2079.50,0.0381
2079.00,0.0381
2078.50,0.0381
2078.00,0.0381
2077.50,0.0381
2077.00,0.0381
2076.50,0.0381
2076.00,0.0381
2075.50,0.0382
2075.00,0.0382
2074.50,0.0382
2074.00,0.0382
2073.50,0.0382
2073.00,0.0382
2072.50,0.0383
2072.00,0.0383
2071.50,0.0383
2071.00,0.0383
2070.50,0.0383
2070.00,0.0384
2069.50,0.0384
2069.00,0.0384
2068.50,0.0384
2068.00,0.0384
2067.50,0.0385
2067.00,0.0385
2066.50,0.0385
2066.00,0.0385
2065.50,0.0386
2065.00,0.0386
2064.50,0.0386
2064.00,0.0386
2063.50,0.0387
2063.00,0.0387
2062.50,0.0387
2062.00,0.0387
2061.50,0.0388
2061.00,0.0388
2060.50,0.0388
2060.00,0.0389
2059.50,0.0389
2059.00,0.0389
2058.50,0.0389
2058.00,0.0389
2057.50,0.0390
2057.00,0.0390
2056.50,0.0390
2056.00,0.0391
2055.50,0.0391
2055.00,0.0391
2054.50,0.0391
2054.00,0.0391
2053.50,0.0391
2053.00,0.0392
2052.50,0.0392
2052.00,0.0392
2051.50,0.0392
2051.00,0.0392
2050.50,0.0391
2050.00,0.0391
2049.50,0.0391
2049.00,0.0391
2048.50,0.0390
2048.00,0.0390
2047.50,0.0389
2047.00,0.0389
2046.50,0.0388
2046.00,0.0388
2045.50,0.0387
2045.00,0.0386
2044.50,0.0385
2044.00,0.0384
2043.50,0.0384
2043.00,0.0383
2042.50,0.0382
2042.00,0.0381
2041.50,0.0380
2041.00,0.0379
2040.50,0.0379
2040.00,0.0378
2039.50,0.0377
2039.00,0.0377
2038.50,0.0376
2038.00,0.0375
2037.50,0.0374
2037.00,0.0374
2036.50,0.0373
2036.00,0.0373
2035.50,0.0373
2035.00,0.0372
2034.50,0.0372
2034.00,0.0371
2033.50,0.0371
2033.00,0.0371
2032.50,0.0371
2032.00,0.0370
2031.50,0.0370
2031.00,0.0370
2030.50,0.0370
2030.00,0.0370
2029.50,0.0370
2029.00,0.0370
2028.50,0.0370
2028.00,0.0370
2027.50,0.0370
2027.00,0.0370
2026.50,0.0370
2026.00,0.0370
2025.50,0.0370
2025.00,0.0371
2024.50,0.0371
2024.00,0.0371
2023.50,0.0371
2023.00,0.0372
2022.50,0.0372
2022.00,0.0372
2021.50,0.0372
2021.00,0.0373
2020.50,0.0373
2020.00,0.0373
2019.50,0.0374
2019.00,0.0374
2018.50,0.0375
2018.00,0.0375
2017.50,0.0375
2017.00,0.0376
2016.50,0.0376
2016.00,0.0376
2015.50,0.0377
2015.00,0.0377
2014.50,0.0378
2014.00,0.0378
2013.50,0.0379
2013.00,0.0379
2012.50,0.0380
2012.00,0.0380
2011.50,0.0381
2011.00,0.0381
2010.50,0.0382
2010.00,0.0382
2009.50,0.0382
2009.00,0.0383
2008.50,0.0383
2008.00,0.0383
2007.50,0.0384
2007.00,0.0384
2006.50,0.0384
2006.00,0.0385
2005.50,0.0385
2005.00,0.0385
2004.50,0.0385
2004.00,0.0386
2003.50,0.0386
2003.00,0.0386
2002.50,0.0387
2002.00,0.0387
2001.50,0.0387
2001.00,0.0387
2000.50,0.0387
2000.00,0.0387
1999.50,0.0388
1999.00,0.0388
1998.50,0.0388
1998.00,0.0388
1997.50,0.0388
1997.00,0.0388
1996.50,0.0388
1996.00,0.0388
1995.50,0.0388
1995.00,0.0388
1994.50,0.0388
1994.00,0.0388
1993.50,0.0388
1993.00,0.0387
1992.50,0.0387
1992.00,0.0387
1991.50,0.0387
1991.00,0.0387
1990.50,0.0388
1990.00,0.0388
1989.50,0.0388
1989.00,0.0388
1988.50,0.0388
1988.00,0.0389
1987.50,0.0389
1987.00,0.0389
1986.50,0.0390
1986.00,0.0390
1985.50,0.0390
1985.00,0.0391
1984.50,0.0391
1984.00,0.0392
1983.50,0.0392
1983.00,0.0393
1982.50,0.0393
1982.00,0.0394
1981.50,0.0394
1981.00,0.0395
1980.50,0.0396
1980.00,0.0397
1979.50,0.0397
1979.00,0.0398
1978.50,0.0399
1978.00,0.0400
1977.50,0.0400
1977.00,0.0401
1976.50,0.0402
1976.00,0.0403
1975.50,0.0404
1975.00,0.0405
1974.50,0.0406
1974.00,0.0407
1973.50,0.0408
1973.00,0.0409
1972.50,0.0410
1972.00,0.0411
1971.50,0.0412
1971.00,0.0414
1970.50,0.0415
1970.00,0.0416
1969.50,0.0417
1969.00,0.0418
1968.50,0.0419
1968.00,0.0420
1967.50,0.0421
1967.00,0.0422
1966.50,0.0423
1966.00,0.0425
1965.50,0.0426
1965.00,0.0427
1964.50,0.0428
1964.00,0.0429
1963.50,0.0430
1963.00,0.0430
1962.50,0.0431
1962.00,0.0432
1961.50,0.0433
1961.00,0.0434
1960.50,0.0435
1960.00,0.0436
1959.50,0.0437
1959.00,0.0438
1958.50,0.0438
1958.00,0.0439
1957.50,0.0440
1957.00,0.0441
1956.50,0.0442
1956.00,0.0443
1955.50,0.0444
1955.00,0.0445
1954.50,0.0446
1954.00,0.0447
1953.50,0.0448
1953.00,0.0449
1952.50,0.0451
1952.00,0.0452
1951.50,0.0453
1951.00,0.0454
1950.50,0.0455
1950.00,0.0457
1949.50,0.0458
1949.00,0.0459
1948.50,0.0460
1948.00,0.0461
1947.50,0.0462
1947.00,0.0463
1946.50,0.0464
1946.00,0.0464
1945.50,0.0465
1945.00,0.0465
1944.50,0.0465
1944.00,0.0465
1943.50,0.0465
1943.00,0.0465
1942.50,0.0464
1942.00,0.0463
1941.50,0.0462
1941.00,0.0461
1940.50,0.0460
1940.00,0.0459
1939.50,0.0458
1939.00,0.0456
1938.50,0.0454
1938.00,0.0452
1937.50,0.0451
1937.00,0.0449
1936.50,0.0447
1936.00,0.0445
1935.50,0.0443
1935.00,0.0441
1934.50,0.0440
1934.00,0.0438
1933.50,0.0437
1933.00,0.0435
1932.50,0.0434
1932.00,0.0432
1931.50,0.0431
1931.00,0.0430
1930.50,0.0429
1930.00,0.0428
1929.50,0.0427
1929.00,0.0426
1928.50,0.0426
1928.00,0.0425
1927.50,0.0424
1927.00,0.0424
1926.50,0.0423
1926.00,0.0423
1925.50,0.0422
1925.00,0.0422
1924.50,0.0421
1924.00,0.0420
1923.50,0.0420
1923.00,0.0420
1922.50,0.0419
1922.00,0.0419
1921.50,0.0418
1921.00,0.0418
1920.50,0.0418
1920.00,0.0417
1919.50,0.0417
1919.00,0.0416
1918.50,0.0416
1918.00,0.0415
1917.50,0.0415
1917.00,0.0414
1916.50,0.0414
1916.00,0.0413
1915.50,0.0412
1915.00,0.0412
1914.50,0.0411
1914.00,0.0410
1913.50,0.0410
1913.00,0.0409
1912.50,0.0408
1912.00,0.0407
1911.50,0.0406
1911.00,0.0405
1910.50,0.0405
1910.00,0.0404
1909.50,0.0403
1909.00,0.0402
1908.50,0.0402
1908.00,0.0401
1907.50,0.0401
1907.00,0.0400
1906.50,0.0400
1906.00,0.0399
1905.50,0.0399
1905.00,0.0399
1904.50,0.0398
1904.00,0.0398
1903.50,0.0397
1903.00,0.0397
1902.50,0.0397
1902.00,0.0397
1901.50,0.0396
1901.00,0.0396
1900.50,0.0396
1900.00,0.0396
1899.50,0.0395
1899.00,0.0395
1898.50,0.0395
1898.00,0.0395
1897.50,0.0395
1897.00,0.0395
1896.50,0.0395
1896.00,0.0395
1895.50,0.0394
1895.00,0.0394
1894.50,0.0394
1894.00,0.0394
1893.50,0.0394
1893.00,0.0394
1892.50,0.0395
1892.00,0.0395
1891.50,0.0395
1891.00,0.0395
1890.50,0.0394
1890.00,0.0394
1889.50,0.0394
1889.00,0.0394
1888.50,0.0394
1888.00,0.0394
1887.50,0.0394
1887.00,0.0395
1886.50,0.0395
1886.00,0.0395
1885.50,0.0395
1885.00,0.0394
1884.50,0.0394
1884.00,0.0394
1883.50,0.0394
1883.00,0.0394
1882.50,0.0395
1882.00,0.0395
1881.50,0.0395
1881.00,0.0395
1880.50,0.0395
1880.00,0.0395
1879.50,0.0395
1879.00,0.0395
1878.50,0.0395
1878.00,0.0395
1877.50,0.0395
1877.00,0.0395
1876.50,0.0395
1876.00,0.0395
1875.50,0.0395
1875.00,0.0395
1874.50,0.0395
1874.00,0.0395
1873.50,0.0396
1873.00,0.0396
1872.50,0.0396
1872.00,0.0396
1871.50,0.0396
1871.00,0.0396
1870.50,0.0396
1870.00,0.0395
1869.50,0.0395
1869.00,0.0395
1868.50,0.0395
1868.00,0.0395
1867.50,0.0395
1867.00,0.0395
1866.50,0.0395
1866.00,0.0395
1865.50,0.0396
1865.00,0.0396
1864.50,0.0396
1864.00,0.0396
1863.50,0.0396
1863.00,0.0396
1862.50,0.0396
1862.00,0.0396
1861.50,0.0396
1861.00,0.0396
1860.50,0.0395
1860.00,0.0395
1859.50,0.0395
1859.00,0.0395
1858.50,0.0395
1858.00,0.0395
1857.50,0.0395
1857.00,0.0395
1856.50,0.0396
1856.00,0.0396
1855.50,0.0396
1855.00,0.0396
1854.50,0.0396
1854.00,0.0396
1853.50,0.0396
1853.00,0.0396
1852.50,0.0396
1852.00,0.0396
1851.50,0.0396
1851.00,0.0396
1850.50,0.0396
1850.00,0.0396
1849.50,0.0396
1849.00,0.0395
1848.50,0.0395
1848.00,0.0395
1847.50,0.0395
1847.00,0.0395
1846.50,0.0395
1846.00,0.0395
1845.50,0.0394
1845.00,0.0394
1844.50,0.0394
1844.00,0.0394
1843.50,0.0394
1843.00,0.0394
1842.50,0.0394
1842.00,0.0394
1841.50,0.0394
1841.00,0.0394
1840.50,0.0394
1840.00,0.0394
1839.50,0.0394
1839.00,0.0394
1838.50,0.0394
1838.00,0.0394
1837.50,0.0394
1837.00,0.0394
1836.50,0.0394
1836.00,0.0394
1835.50,0.0394
1835.00,0.0394
1834.50,0.0394
1834.00,0.0394
1833.50,0.0394
1833.00,0.0394
1832.50,0.0395
1832.00,0.0395
1831.50,0.0394
1831.00,0.0394
1830.50,0.0394
1830.00,0.0394
1829.50,0.0394
1829.00,0.0394
1828.50,0.0394
1828.00,0.0395
1827.50,0.0395
1827.00,0.0396
1826.50,0.0396
1826.00,0.0396
1825.50,0.0396
1825.00,0.0396
1824.50,0.0396
1824.00,0.0397
1823.50,0.0397
1823.00,0.0397
1822.50,0.0397
1822.00,0.0398
1821.50,0.0398
1821.00,0.0398
1820.50,0.0398
1820.00,0.0399
1819.50,0.0399
1819.00,0.0400
1818.50,0.0400
1818.00,0.0400
1817.50,0.0401
1817.00,0.0401
1816.50,0.0401
1816.00,0.0402
1815.50,0.0402
1815.00,0.0402
1814.50,0.0403
1814.00,0.0403
1813.50,0.0403
1813.00,0.0404
1812.50,0.0404
1812.00,0.0404
1811.50,0.0405
1811.00,0.0405
1810.50,0.0405
1810.00,0.0406
1809.50,0.0406
1809.00,0.0407
1808.50,0.0407
1808.00,0.0408
1807.50,0.0408
1807.00,0.0409
1806.50,0.0409
1806.00,0.0410
1805.50,0.0410
1805.00,0.0410
1804.50,0.0411
1804.00,0.0411
1803.50,0.0412
1803.00,0.0412
1802.50,0.0413
1802.00,0.0413
1801.50,0.0413
1801.00,0.0414
1800.50,0.0414
1800.00,0.0414
1799.50,0.0415
1799.00,0.0415
1798.50,0.0416
1798.00,0.0417
1797.50,0.0417
1797.00,0.0418
1796.50,0.0418
1796.00,0.0418
1795.50,0.0419
1795.00,0.0419
1794.50,0.0420
1794.00,0.0420
1793.50,0.0421
1793.00,0.0421
1792.50,0.0422
1792.00,0.0422
1791.50,0.0422
1791.00,0.0422
1790.50,0.0422
1790.00,0.0423
1789.50,0.0423
1789.00,0.0424
1788.50,0.0424
1788.00,0.0425
1787.50,0.0425
1787.00,0.0426
1786.50,0.0426
1786.00,0.0426
1785.50,0.0426
1785.00,0.0427
1784.50,0.0427
1784.00,0.0427
1783.50,0.0427
1783.00,0.0428
1782.50,0.0428
1782.00,0.0428
1781.50,0.0428
1781.00,0.0428
1780.50,0.0428
1780.00,0.0428
1779.50,0.0428
1779.00,0.0428
1778.50,0.0429
1778.00,0.0429
1777.50,0.0429
1777.00,0.0429
1776.50,0.0429
1776.00,0.0429
1775.50,0.0428
1775.00,0.0429
1774.50,0.0429
1774.00,0.0428
1773.50,0.0428
1773.00,0.0429
1772.50,0.0429
1772.00,0.0428
1771.50,0.0427
1771.00,0.0427
1770.50,0.0428
1770.00,0.0428
1769.50,0.0428
1769.00,0.0428
1768.50,0.0428
1768.00,0.0428
1767.50,0.0428
1767.00,0.0428
1766.50,0.0428
1766.00,0.0428
1765.50,0.0427
1765.00,0.0427
1764.50,0.0427
1764.00,0.0427
1763.50,0.0427
1763.00,0.0427
1762.50,0.0427
1762.00,0.0426
1761.50,0.0426
1761.00,0.0426
1760.50,0.0426
1760.00,0.0426
1759.50,0.0426
1759.00,0.0426
1758.50,0.0426
1758.00,0.0426
1757.50,0.0426
1757.00,0.0426
1756.50,0.0426
1756.00,0.0426
1755.50,0.0426
1755.00,0.0426
1754.50,0.0426
1754.00,0.0426
1753.50,0.0426
1753.00,0.0426
1752.50,0.0426
1752.00,0.0427
1751.50,0.0427
1751.00,0.0427
1750.50,0.0426
1750.00,0.0426
1749.50,0.0425
1749.00,0.0425
1748.50,0.0425
1748.00,0.0425
1747.50,0.0425
1747.00,0.0426
1746.50,0.0426
1746.00,0.0426
1745.50,0.0427
1745.00,0.0427
1744.50,0.0427
1744.00,0.0427
1743.50,0.0427
1743.00,0.0427
1742.50,0.0428
1742.00,0.0428
1741.50,0.0428
1741.00,0.0428
1740.50,0.0428
1740.00,0.0428
1739.50,0.0428
1739.00,0.0428
1738.50,0.0428
1738.00,0.0428
1737.50,0.0428
1737.00,0.0429
1736.50,0.0429
1736.00,0.0429
1735.50,0.0430
1735.00,0.0431
1734.50,0.0432
1734.00,0.0432
1733.50,0.0431
1733.00,0.0430
1732.50,0.0431
1732.00,0.0431
1731.50,0.0431
1731.00,0.0431
1730.50,0.0431
1730.00,0.0432
1729.50,0.0432
1729.00,0.0432
1728.50,0.0433
1728.00,0.0433
1727.50,0.0433
1727.00,0.0433
1726.50,0.0434
1726.00,0.0434
1725.50,0.0434
1725.00,0.0434
1724.50,0.0435
1724.00,0.0435
1723.50,0.0435
1723.00,0.0435
1722.50,0.0435
1722.00,0.0435
1721.50,0.0435
1721.00,0.0435
1720.50,0.0435
1720.00,0.0435
1719.50,0.0435
1719.00,0.0436
1718.50,0.0435
1718.00,0.0434
1717.50,0.0435
1717.00,0.0435
1716.50,0.0435
1716.00,0.0435
1715.50,0.0435
1715.00,0.0435
1714.50,0.0434
1714.00,0.0434
1713.50,0.0434
1713.00,0.0435
1712.50,0.0435
1712.00,0.0435
1711.50,0.0435
1711.00,0.0435
1710.50,0.0434
1710.00,0.0434
1709.50,0.0434
1709.00,0.0434
1708.50,0.0434
1708.00,0.0434
1707.50,0.0434
1707.00,0.0434
1706.50,0.0434
1706.00,0.0433
1705.50,0.0433
1705.00,0.0433
1704.50,0.0433
1704.00,0.0433
1703.50,0.0434
1703.00,0.0434
1702.50,0.0435
1702.00,0.0434
1701.50,0.0434
1701.00,0.0435
1700.50,0.0437
1700.00,0.0434
1699.50,0.0434
1699.00,0.0435
1698.50,0.0434
1698.00,0.0434
1697.50,0.0434
1697.00,0.0434
1696.50,0.0435
1696.00,0.0436
1695.50,0.0436
1695.00,0.0436
1694.50,0.0436
1694.00,0.0436
1693.50,0.0435
1693.00,0.0436
1692.50,0.0437
1692.00,0.0437
1691.50,0.0437
1691.00,0.0437
1690.50,0.0437
1690.00,0.0437
1689.50,0.0437
1689.00,0.0437
1688.50,0.0437
1688.00,0.0438
1687.50,0.0438
1687.00,0.0438
1686.50,0.0439
1686.00,0.0439
1685.50,0.0439
1685.00,0.0440
1684.50,0.0440
1684.00,0.0438
1683.50,0.0437
1683.00,0.0438
1682.50,0.0439
1682.00,0.0440
1681.50,0.0440
1681.00,0.0441
1680.50,0.0441
1680.00,0.0441
1679.50,0.0441
1679.00,0.0442
1678.50,0.0442
1678.00,0.0443
1677.50,0.0443
1677.00,0.0444
1676.50,0.0444
1676.00,0.0445
1675.50,0.0445
1675.00,0.0445
1674.50,0.0446
1674.00,0.0446
1673.50,0.0446
1673.00,0.0446
1672.50,0.0446
1672.00,0.0447
1671.50,0.0447
1671.00,0.0448
1670.50,0.0448
1670.00,0.0448
1669.50,0.0449
1669.00,0.0449
1668.50,0.0449
1668.00,0.0450
1667.50,0.0451
1667.00,0.0451
1666.50,0.0452
1666.00,0.0452
1665.50,0.0453
1665.00,0.0454
1664.50,0.0454
1664.00,0.0454
1663.50,0.0454
1663.00,0.0455
1662.50,0.0455
1662.00,0.0456
1661.50,0.0456
1661.00,0.0457
1660.50,0.0457
1660.00,0.0458
1659.50,0.0459
1659.00,0.0459
1658.50,0.0460
1658.00,0.0460
1657.50,0.0461
1657.00,0.0461
1656.50,0.0461
1656.00,0.0462
1655.50,0.0462
1655.00,0.0462
1654.50,0.0463
1654.00,0.0463
1653.50,0.0463
1653.00,0.0464
1652.50,0.0463
1652.00,0.0465
1651.50,0.0466
1651.00,0.0466
1650.50,0.0466
1650.00,0.0466
1649.50,0.0467
1649.00,0.0467
1648.50,0.0467
1648.00,0.0467
1647.50,0.0467
1647.00,0.0467
1646.50,0.0468
1646.00,0.0469
1645.50,0.0470
1645.00,0.0471
1644.50,0.0471
1644.00,0.0471
1643.50,0.0471
1643.00,0.0472
1642.50,0.0472
1642.00,0.0473
1641.50,0.0473
1641.00,0.0474
1640.50,0.0474
1640.00,0.0474
1639.50,0.0474
1639.00,0.0475
1638.50,0.0475
1638.00,0.0475
1637.50,0.0476
1637.00,0.0476
1636.50,0.0476
1636.00,0.0476
1635.50,0.0477
1635.00,0.0477
1634.50,0.0477
1634.00,0.0478
1633.50,0.0478
1633.00,0.0479
1632.50,0.0480
1632.00,0.0480
1631.50,0.0481
1631.00,0.0481
1630.50,0.0482
1630.00,0.0482
1629.50,0.0482
1629.00,0.0483
1628.50,0.0483
1628.00,0.0483
1627.50,0.0483
1627.00,0.0484
1626.50,0.0485
1626.00,0.0485
1625.50,0.0486
1625.00,0.0487
1624.50,0.0487
1624.00,0.0487
1623.50,0.0488
1623.00,0.0488
1622.50,0.0488
1622.00,0.0489
1621.50,0.0490
1621.00,0.0491
1620.50,0.0491
1620.00,0.0492
1619.50,0.0493
1619.00,0.0493
1618.50,0.0494
1618.00,0.0494
1617.50,0.0495
1617.00,0.0496
1616.50,0.0497
1616.00,0.0497
1615.50,0.0497
1615.00,0.0498
1614.50,0.0498
1614.00,0.0499
1613.50,0.0499
1613.00,0.0500
1612.50,0.0500
1612.00,0.0501
1611.50,0.0501
1611.00,0.0502
1610.50,0.0502
1610.00,0.0503
1609.50,0.0503
1609.00,0.0504
1608.50,0.0504
1608.00,0.0505
1607.50,0.0505
1607.00,0.0506
1606.50,0.0506
1606.00,0.0507
1605.50,0.0508
1605.00,0.0508
1604.50,0.0509
1604.00,0.0510
1603.50,0.0510
1603.00,0.0512
1602.50,0.0513
1602.00,0.0514
1601.50,0.0516
1601.00,0.0518
1600.50,0.0521
1600.00,0.0524
1599.50,0.0528
1599.00,0.0532
1598.50,0.0536
1598.00,0.0540
1597.50,0.0543
1597.00,0.0545
1596.50,0.0545
1596.00,0.0542
1595.50,0.0539
1595.00,0.0534
1594.50,0.0529
1594.00,0.0524
1593.50,0.0521
1593.00,0.0517
1592.50,0.0515
1592.00,0.0513
1591.50,0.0511
1591.00,0.0509
1590.50,0.0508
1590.00,0.0506
1589.50,0.0505
1589.00,0.0504
1588.50,0.0503
1588.00,0.0502
1587.50,0.0502
1587.00,0.0501
1586.50,0.0500
1586.00,0.0499
1585.50,0.0499
1585.00,0.0498
1584.50,0.0497
1584.00,0.0497
1583.50,0.0496
1583.00,0.0495
1582.50,0.0495
1582.00,0.0494
1581.50,0.0493
1581.00,0.0493
1580.50,0.0492
1580.00,0.0492
1579.50,0.0491
1579.00,0.0491
1578.50,0.0490
1578.00,0.0490
1577.50,0.0489
1577.00,0.0489
1576.50,0.0489
1576.00,0.0488
1575.50,0.0487
1575.00,0.0486
1574.50,0.0485
1574.00,0.0484
1573.50,0.0484
1573.00,0.0483
1572.50,0.0483
1572.00,0.0483
1571.50,0.0483
1571.00,0.0482
1570.50,0.0482
1570.00,0.0481
1569.50,0.0480
1569.00,0.0478
1568.50,0.0478
1568.00,0.0478
1567.50,0.0478
1567.00,0.0478
1566.50,0.0478
1566.00,0.0477
1565.50,0.0477
1565.00,0.0476
1564.50,0.0476
1564.00,0.0476
1563.50,0.0475
1563.00,0.0476
1562.50,0.0476
1562.00,0.0476
1561.50,0.0475
1561.00,0.0476
1560.50,0.0477
1560.00,0.0478
1559.50,0.0477
1559.00,0.0475
1558.50,0.0473
1558.00,0.0472
1557.50,0.0473
1557.00,0.0474
1556.50,0.0474
1556.00,0.0474
1555.50,0.0474
1555.00,0.0474
1554.50,0.0475
1554.00,0.0475
1553.50,0.0474
1553.00,0.0474
1552.50,0.0474
1552.00,0.0474
1551.50,0.0474
1551.00,0.0474
1550.50,0.0474
1550.00,0.0474
1549.50,0.0473
1549.00,0.0473
1548.50,0.0474
1548.00,0.0474
1547.50,0.0474
1547.00,0.0474
1546.50,0.0475
1546.00,0.0475
1545.50,0.0475
1545.00,0.0475
1544.50,0.0474
1544.00,0.0474
1543.50,0.0474
1543.00,0.0474
1542.50,0.0475
1542.00,0.0475
1541.50,0.0476
1541.00,0.0476
1540.50,0.0476
1540.00,0.0476
1539.50,0.0475
1539.00,0.0475
1538.50,0.0475
1538.00,0.0475
1537.50,0.0476
1537.00,0.0476
1536.50,0.0476
1536.00,0.0477
1535.50,0.0477
1535.00,0.0477
1534.50,0.0477
1534.00,0.0477
1533.50,0.0476
1533.00,0.0476
1532.50,0.0476
1532.00,0.0476
1531.50,0.0476
1531.00,0.0477
1530.50,0.0477
1530.00,0.0477
1529.50,0.0478
1529.00,0.0478
1528.50,0.0478
1528.00,0.0478
1527.50,0.0478
1527.00,0.0478
1526.50,0.0478
1526.00,0.0478
1525.50,0.0478
1525.00,0.0478
1524.50,0.0478
1524.00,0.0478
1523.50,0.0478
1523.00,0.0478
1522.50,0.0478
1522.00,0.0478
1521.50,0.0478
1521.00,0.0478
1520.50,0.0477
1520.00,0.0477
1519.50,0.0477
1519.00,0.0477
1518.50,0.0477
1518.00,0.0477
1517.50,0.0477
1517.00,0.0477
1516.50,0.0476
1516.00,0.0476
1515.50,0.0477
1515.00,0.0477
1514.50,0.0477
1514.00,0.0478
1513.50,0.0478
1513.00,0.0478
1512.50,0.0478
1512.00,0.0478
1511.50,0.0478
1511.00,0.0478
1510.50,0.0478
1510.00,0.0478
1509.50,0.0478
1509.00,0.0478
1508.50,0.0478
1508.00,0.0478
1507.50,0.0479
1507.00,0.0479
1506.50,0.0477
1506.00,0.0476
1505.50,0.0477
1505.00,0.0478
1504.50,0.0478
1504.00,0.0478
1503.50,0.0478
1503.00,0.0479
1502.50,0.0479
1502.00,0.0479
1501.50,0.0479
1501.00,0.0480
1500.50,0.0480
1500.00,0.0480
1499.50,0.0480
1499.00,0.0480
1498.50,0.0481
1498.00,0.0481
1497.50,0.0481
1497.00,0.0482
1496.50,0.0483
1496.00,0.0484
1495.50,0.0484
1495.00,0.0484
1494.50,0.0485
1494.00,0.0485
1493.50,0.0486
1493.00,0.0487
1492.50,0.0488
1492.00,0.0489
1491.50,0.0490
1491.00,0.0491
1490.50,0.0492
1490.00,0.0493
1489.50,0.0495
1489.00,0.0497
1488.50,0.0498
1488.00,0.0499
1487.50,0.0501
1487.00,0.0503
1486.50,0.0504
1486.00,0.0505
1485.50,0.0506
1485.00,0.0507
1484.50,0.0507
1484.00,0.0508
1483.50,0.0509
1483.00,0.0510
1482.50,0.0510
1482.00,0.0511
1481.50,0.0511
1481.00,0.0512
1480.50,0.0512
1480.00,0.0512
1479.50,0.0513
1479.00,0.0513
1478.50,0.0514
1478.00,0.0514
1477.50,0.0514
1477.00,0.0515
1476.50,0.0515
1476.00,0.0515
1475.50,0.0516
1475.00,0.0517
1474.50,0.0517
1474.00,0.0519
1473.50,0.0520
1473.00,0.0521
1472.50,0.0522
1472.00,0.0523
1471.50,0.0525
1471.00,0.0527
1470.50,0.0528
1470.00,0.0530
1469.50,0.0533
1469.00,0.0536
1468.50,0.0539
1468.00,0.0541
1467.50,0.0544
1467.00,0.0547
1466.50,0.0549
1466.00,0.0552
1465.50,0.0556
1465.00,0.0560
1464.50,0.0564
1464.00,0.0569
1463.50,0.0573
1463.00,0.0576
1462.50,0.0581
1462.00,0.0586
1461.50,0.0591
1461.00,0.0596
1460.50,0.0600
1460.00,0.0605
1459.50,0.0610
1459.00,0.0615
1458.50,0.0620
1458.00,0.0624
1457.50,0.0630
1457.00,0.0638
1456.50,0.0644
1456.00,0.0649
1455.50,0.0653
1455.00,0.0657
1454.50,0.0661
1454.00,0.0667
1453.50,0.0673
1453.00,0.0679
1452.50,0.0686
1452.00,0.0693
1451.50,0.0700
1451.00,0.0707
1450.50,0.0714
1450.00,0.0720
1449.50,0.0727
1449.00,0.0733
1448.50,0.0740
1448.00,0.0746
1447.50,0.0752
1447.00,0.0756
1446.50,0.0759
1446.00,0.0761
1445.50,0.0762
1445.00,0.0762
1444.50,0.0761
1444.00,0.0759
1443.50,0.0756
1443.00,0.0753
1442.50,0.0748
1442.00,0.0743
1441.50,0.0738
1441.00,0.0733
1440.50,0.0727
1440.00,0.0721
1439.50,0.0716
1439.00,0.0711
1438.50,0.0707
1438.00,0.0703
1437.50,0.0700
1437.00,0.0695
1436.50,0.0690
1436.00,0.0685
1435.50,0.0683
1435.00,0.0682
1434.50,0.0680
1434.00,0.0680
1433.50,0.0680
1433.00,0.0680
1432.50,0.0681
1432.00,0.0682
1431.50,0.0684
1431.00,0.0687
1430.50,0.0691
1430.00,0.0695
1429.50,0.0700
1429.00,0.0706
1428.50,0.0712
1428.00,0.0719
1427.50,0.0727
1427.00,0.0736
1426.50,0.0745
1426.00,0.0755
1425.50,0.0767
1425.00,0.0780
1424.50,0.0794
1424.00,0.0811
1423.50,0.0829
1423.00,0.0848
1422.50,0.0866
1422.00,0.0886
1421.50,0.0906
1421.00,0.0925
1420.50,0.0944
1420.00,0.0968
1419.50,0.1000
1419.00,0.1033
1418.50,0.1058
1418.00,0.1077
1417.50,0.1096
1417.00,0.1116
1416.50,0.1136
1416.00,0.1154
1415.50,0.1170
1415.00,0.1184
1414.50,0.1196
1414.00,0.1206
1413.50,0.1215
1413.00,0.1221
1412.50,0.1224
1412.00,0.1227
1411.50,0.1227
1411.00,0.1226
1410.50,0.1224
1410.00,0.1220
1409.50,0.1215
1409.00,0.1209
1408.50,0.1201
1408.00,0.1193
1407.50,0.1184
1407.00,0.1174
1406.50,0.1165
1406.00,0.1155
1405.50,0.1145
1405.00,0.1133
1404.50,0.1123
1404.00,0.1114
1403.50,0.1107
1403.00,0.1100
1402.50,0.1093
1402.00,0.1086
1401.50,0.1079
1401.00,0.1072
1400.50,0.1064
1400.00,0.1055
1399.50,0.1043
1399.00,0.1027
1398.50,0.1011
1398.00,0.0996
1397.50,0.0980
1397.00,0.0964
1396.50,0.0947
1396.00,0.0930
1395.50,0.0911
1395.00,0.0890
1394.50,0.0868
1394.00,0.0849
1393.50,0.0832
1393.00,0.0818
1392.50,0.0806
1392.00,0.0793
1391.50,0.0780
1391.00,0.0768
1390.50,0.0757
1390.00,0.0747
1389.50,0.0738
1389.00,0.0731
1388.50,0.0724
1388.00,0.0717
1387.50,0.0710
1387.00,0.0703
1386.50,0.0697
1386.00,0.0693
1385.50,0.0688
1385.00,0.0684
1384.50,0.0681
1384.00,0.0677
1383.50,0.0673
1383.00,0.0670
1382.50,0.0666
1382.00,0.0663
1381.50,0.0660
1381.00,0.0656
1380.50,0.0654
1380.00,0.0651
1379.50,0.0649
1379.00,0.0646
1378.50,0.0644
1378.00,0.0643
1377.50,0.0641
1377.00,0.0640
1376.50,0.0639
1376.00,0.0638
1375.50,0.0638
1375.00,0.0637
1374.50,0.0636
1374.00,0.0636
1373.50,0.0635
1373.00,0.0635
1372.50,0.0635
1372.00,0.0635
1371.50,0.0634
1371.00,0.0633
1370.50,0.0631
1370.00,0.0630
1369.50,0.0628
1369.00,0.0626
1368.50,0.0624
1368.00,0.0622
1367.50,0.0621
1367.00,0.0620
1366.50,0.0619
1366.00,0.0619
1365.50,0.0618
1365.00,0.0617
1364.50,0.0617
1364.00,0.0617
1363.50,0.0616
1363.00,0.0615
1362.50,0.0615
1362.00,0.0614
1361.50,0.0614
1361.00,0.0614
1360.50,0.0614
1360.00,0.0614
1359.50,0.0614
1359.00,0.0613
1358.50,0.0613
1358.00,0.0613
1357.50,0.0613
1357.00,0.0613
1356.50,0.0613
1356.00,0.0613
1355.50,0.0613
1355.00,0.0613
1354.50,0.0613
1354.00,0.0613
1353.50,0.0614
1353.00,0.0614
1352.50,0.0614
1352.00,0.0614
1351.50,0.0615
1351.00,0.0615
1350.50,0.0616
1350.00,0.0616
1349.50,0.0617
1349.00,0.0617
1348.50,0.0618
1348.00,0.0619
1347.50,0.0619
1347.00,0.0620
1346.50,0.0620
1346.00,0.0621
1345.50,0.0621
1345.00,0.0622
1344.50,0.0622
1344.00,0.0623
1343.50,0.0623
1343.00,0.0623
1342.50,0.0624
1342.00,0.0624
1341.50,0.0625
1341.00,0.0625
1340.50,0.0625
1340.00,0.0625
1339.50,0.0625
1339.00,0.0625
1338.50,0.0626
1338.00,0.0627
1337.50,0.0627
1337.00,0.0628
1336.50,0.0629
1336.00,0.0629
1335.50,0.0631
1335.00,0.0632
1334.50,0.0633
1334.00,0.0635
1333.50,0.0636
1333.00,0.0638
1332.50,0.0639
1332.00,0.0641
1331.50,0.0642
1331.00,0.0644
1330.50,0.0645
1330.00,0.0647
1329.50,0.0649
1329.00,0.0651
1328.50,0.0653
1328.00,0.0655
1327.50,0.0657
1327.00,0.0659
1326.50,0.0662
1326.00,0.0664
1325.50,0.0666
1325.00,0.0669
1324.50,0.0671
1324.00,0.0674
1323.50,0.0676
1323.00,0.0679
1322.50,0.0682
1322.00,0.0685
1321.50,0.0688
1321.00,0.0691
1320.50,0.0694
1320.00,0.0697
1319.50,0.0700
1319.00,0.0703
1318.50,0.0706
1318.00,0.0709
1317.50,0.0713
1317.00,0.0716
1316.50,0.0720
1316.00,0.0723
1315.50,0.0727
1315.00,0.0731
1314.50,0.0734
1314.00,0.0738
1313.50,0.0742
1313.00,0.0746
1312.50,0.0750
1312.00,0.0754
1311.50,0.0758
1311.00,0.0762
1310.50,0.0767
1310.00,0.0771
1309.50,0.0775
1309.00,0.0780
1308.50,0.0784
1308.00,0.0789
1307.50,0.0793
1307.00,0.0798
1306.50,0.0802
1306.00,0.0807
1305.50,0.0812
1305.00,0.0817
1304.50,0.0822
1304.00,0.0827
1303.50,0.0833
1303.00,0.0838
1302.50,0.0843
1302.00,0.0849
1301.50,0.0855
1301.00,0.0862
1300.50,0.0868
1300.00,0.0874
1299.50,0.0881
1299.00,0.0888
1298.50,0.0895
1298.00,0.0903
1297.50,0.0910
1297.00,0.0918
1296.50,0.0927
1296.00,0.0935
1295.50,0.0944
1295.00,0.0952
1294.50,0.0962
1294.00,0.0971
1293.50,0.0981
1293.00,0.0991
1292.50,0.1002
1292.00,0.1012
1291.50,0.1024
1291.00,0.1035
1290.50,0.1047
1290.00,0.1060
1289.50,0.1073
1289.00,0.1086
1288.50,0.1100
1288.00,0.1114
1287.50,0.1129
1287.00,0.1145
1286.50,0.1162
1286.00,0.1179
1285.50,0.1197
1285.00,0.1217
1284.50,0.1237
1284.00,0.1259
1283.50,0.1282
1283.00,0.1306
1282.50,0.1333
1282.00,0.1361
1281.50,0.1391
1281.00,0.1424
1280.50,0.1459
1280.00,0.1497
1279.50,0.1538
1279.00,0.1583
1278.50,0.1632
1278.00,0.1685
1277.50,0.1744
1277.00,0.1808
1276.50,0.1879
1276.00,0.1957
1275.50,0.2044
1275.00,0.2140
1274.50,0.2247
1274.00,0.2366
1273.50,0.2499
1273.00,0.2648
1272.50,0.2819
1272.00,0.3014
1271.50,0.3237
1271.00,0.3491
1270.50,0.3782
1270.00,0.4116
1269.50,0.4498
1269.00,0.4934
1268.50,0.5425
1268.00,0.5970
1267.50,0.6566
1267.00,0.7207
1266.50,0.7879
1266.00,0.8561
1265.50,0.9239
1265.00,0.9892
1264.50,1.0494
1264.00,1.1024
1263.50,1.1475
1263.00,1.1841
1262.50,1.2101
1262.00,1.2251
1261.50,1.2307
1261.00,1.2281
1260.50,1.2164
1260.00,1.1964
1259.50,1.1708
1259.00,1.1408
1258.50,1.1059
1258.00,1.0669
1257.50,1.0260
1257.00,0.9846
1256.50,0.9427
1256.00,0.9011
1255.50,0.8612
1255.00,0.8230
1254.50,0.7857
1254.00,0.7488
1253.50,0.7123
1253.00,0.6757
1252.50,0.6382
1252.00,0.5998
1251.50,0.5614
1251.00,0.5234
1250.50,0.4865
1250.00,0.4513
1249.50,0.4186
1249.00,0.3888
1248.50,0.3617
1248.00,0.3375
1247.50,0.3159
1247.00,0.2970
1246.50,0.2803
1246.00,0.2656
1245.50,0.2528
1245.00,0.2415
1244.50,0.2316
1244.00,0.2227
1243.50,0.2149
1243.00,0.2080
1242.50,0.2018
1242.00,0.1963
1241.50,0.1914
1241.00,0.1870
1240.50,0.1831
1240.00,0.1796
1239.50,0.1765
1239.00,0.1737
1238.50,0.1713
1238.00,0.1690
1237.50,0.1670
1237.00,0.1653
1236.50,0.1637
1236.00,0.1623
1235.50,0.1612
1235.00,0.1602
1234.50,0.1593
1234.00,0.1586
1233.50,0.1580
1233.00,0.1576
1232.50,0.1573
1232.00,0.1570
1231.50,0.1569
1231.00,0.1570
1230.50,0.1571
1230.00,0.1574
1229.50,0.1577
1229.00,0.1581
1228.50,0.1586
1228.00,0.1592
1227.50,0.1599
1227.00,0.1607
1226.50,0.1616
1226.00,0.1626
1225.50,0.1636
1225.00,0.1647
1224.50,0.1659
1224.00,0.1672
1223.50,0.1685
1223.00,0.1699
1222.50,0.1714
1222.00,0.1730
1221.50,0.1746
1221.00,0.1763
1220.50,0.1780
1220.00,0.1798
1219.50,0.1817
1219.00,0.1836
1218.50,0.1856
1218.00,0.1877
1217.50,0.1897
1217.00,0.1919
1216.50,0.1940
1216.00,0.1962
1215.50,0.1984
1215.00,0.2007
1214.50,0.2030
1214.00,0.2053
1213.50,0.2076
1213.00,0.2100
1212.50,0.2124
1212.00,0.2148
1211.50,0.2171
1211.00,0.2195
1210.50,0.2219
1210.00,0.2243
1209.50,0.2267
1209.00,0.2291
1208.50,0.2314
1208.00,0.2337
1207.50,0.2360
1207.00,0.2384
1206.50,0.2407
1206.00,0.2429
1205.50,0.2451
1205.00,0.2474
1204.50,0.2496
1204.00,0.2516
1203.50,0.2537
1203.00,0.2558
1202.50,0.2579
1202.00,0.2598
1201.50,0.2618
1201.00,0.2637
1200.50,0.2656
1200.00,0.2673
1199.50,0.2691
1199.00,0.2709
1198.50,0.2726
1198.00,0.2743
1197.50,0.2759
1197.00,0.2775
1196.50,0.2791
1196.00,0.2806
1195.50,0.2820
1195.00,0.2835
1194.50,0.2850
1194.00,0.2863
1193.50,0.2876
1193.00,0.2890
1192.50,0.2902
1192.00,0.2914
1191.50,0.2926
1191.00,0.2938
1190.50,0.2950
1190.00,0.2961
1189.50,0.2972
1189.00,0.2984
1188.50,0.2994
1188.00,0.3004
1187.50,0.3014
1187.00,0.3025
1186.50,0.3035
1186.00,0.3044
1185.50,0.3054
1185.00,0.3064
1184.50,0.3073
1184.00,0.3082
1183.50,0.3091
1183.00,0.3101
1182.50,0.3110
1182.00,0.3119
1181.50,0.3128
1181.00,0.3138
1180.50,0.3147
1180.00,0.3156
1179.50,0.3165
1179.00,0.3175
1178.50,0.3185
1178.00,0.3195
1177.50,0.3205
1177.00,0.3216
1176.50,0.3227
1176.00,0.3237
1175.50,0.3248
1175.00,0.3259
1174.50,0.3270
1174.00,0.3281
1173.50,0.3292
1173.00,0.3304
1172.50,0.3315
1172.00,0.3326
1171.50,0.3337
1171.00,0.3348
1170.50,0.3359
1170.00,0.3369
1169.50,0.3380
1169.00,0.3392
1168.50,0.3404
1168.00,0.3416
1167.50,0.3428
1167.00,0.3442
1166.50,0.3455
1166.00,0.3468
1165.50,0.3482
1165.00,0.3497
1164.50,0.3511
1164.00,0.3526
1163.50,0.3541
1163.00,0.3557
1162.50,0.3573
1162.00,0.3589
1161.50,0.3606
1161.00,0.3624
1160.50,0.3642
1160.00,0.3660
1159.50,0.3678
1159.00,0.3698
1158.50,0.3717
1158.00,0.3737
1157.50,0.3757
1157.00,0.3779
1156.50,0.3801
1156.00,0.3823
1155.50,0.3846
1155.00,0.3871
1154.50,0.3895
1154.00,0.3920
1153.50,0.3946
1153.00,0.3973
1152.50,0.4000
1152.00,0.4027
1151.50,0.4056
1151.00,0.4087
1150.50,0.4117
1150.00,0.4148
1149.50,0.4180
1149.00,0.4214
1148.50,0.4248
1148.00,0.4283
1147.50,0.4318
1147.00,0.4356
1146.50,0.4394
1146.00,0.4433
1145.50,0.4473
1145.00,0.4516
1144.50,0.4559
1144.00,0.4602
1143.50,0.4648
1143.00,0.4695
1142.50,0.4744
1142.00,0.4793
1141.50,0.4844
1141.00,0.4898
1140.50,0.4952
1140.00,0.5007
1139.50,0.5064
1139.00,0.5124
1138.50,0.5184
1138.00,0.5245
1137.50,0.5309
1137.00,0.5375
1136.50,0.5442
1136.00,0.5509
1135.50,0.5580
1135.00,0.5654
1134.50,0.5729
1134.00,0.5806
1133.50,0.5887
1133.00,0.5971
1132.50,0.6058
1132.00,0.6146
1131.50,0.6238
1131.00,0.6334
1130.50,0.6433
1130.00,0.6532
1129.50,0.6636
1129.00,0.6745
1128.50,0.6856
1128.00,0.6969
1127.50,0.7087
1127.00,0.7209
1126.50,0.7333
1126.00,0.7458
1125.50,0.7588
1125.00,0.7725
1124.50,0.7864
1124.00,0.8003
1123.50,0.8148
1123.00,0.8298
1122.50,0.8449
1122.00,0.8600
1121.50,0.8756
1121.00,0.8918
1120.50,0.9081
1120.00,0.9243
1119.50,0.9410
1119.00,0.9583
1118.50,0.9756
1118.00,0.9926
1117.50,1.0101
1117.00,1.0281
1116.50,1.0461
1116.00,1.0636
1115.50,1.0816
1115.00,1.1002
1114.50,1.1186
1114.00,1.1363
1113.50,1.1542
1113.00,1.1728
1112.50,1.1909
1112.00,1.2084
1111.50,1.2262
1111.00,1.2447
1110.50,1.2626
1110.00,1.2795
1109.50,1.2967
1109.00,1.3146
1108.50,1.3316
1108.00,1.3474
1107.50,1.3637
1107.00,1.3811
1106.50,1.3976
1106.00,1.4126
1105.50,1.4278
1105.00,1.4439
1104.50,1.4586
1104.00,1.4715
1103.50,1.4847
1103.00,1.4991
1102.50,1.5123
1102.00,1.5237
1101.50,1.5358
1101.00,1.5492
1100.50,1.5609
1100.00,1.5704
1099.50,1.5804
1099.00,1.5917
1098.50,1.6015
1098.00,1.6088
1097.50,1.6171
1097.00,1.6270
1096.50,1.6353
1096.00,1.6408
1095.50,1.6466
1095.00,1.6539
1094.50,1.6597
1094.00,1.6630
1093.50,1.6672
1093.00,1.6732
1092.50,1.6774
1092.00,1.6790
1091.50,1.6816
1091.00,1.6860
1090.50,1.6883
1090.00,1.6878
1089.50,1.6882
1089.00,1.6904
1088.50,1.6909
1088.00,1.6888
1087.50,1.6880
1087.00,1.6893
1086.50,1.6893
1086.00,1.6867
1085.50,1.6849
1085.00,1.6847
1084.50,1.6828
1084.00,1.6785
1083.50,1.6754
1083.00,1.6743
1082.50,1.6715
1082.00,1.6665
1081.50,1.6625
1081.00,1.6605
1080.50,1.6570
1080.00,1.6514
1079.50,1.6467
1079.00,1.6438
1078.50,1.6394
1078.00,1.6329
1077.50,1.6276
1077.00,1.6239
1076.50,1.6191
1076.00,1.6125
1075.50,1.6072
1075.00,1.6036
1074.50,1.5986
1074.00,1.5917
1073.50,1.5858
1073.00,1.5817
1072.50,1.5764
1072.00,1.5696
1071.50,1.5639
1071.00,1.5599
1070.50,1.5548
1070.00,1.5480
1069.50,1.5420
1069.00,1.5374
1068.50,1.5319
1068.00,1.5251
1067.50,1.5194
1067.00,1.5152
1066.50,1.5101
1066.00,1.5034
1065.50,1.4976
1065.00,1.4931
1064.50,1.4878
1064.00,1.4812
1063.50,1.4754
1063.00,1.4708
1062.50,1.4656
1062.00,1.4592
1061.50,1.4535
1061.00,1.4488
1060.50,1.4433
1060.00,1.4368
1059.50,1.4314
1059.00,1.4274
1058.50,1.4228
1058.00,1.4171
1057.50,1.4120
1057.00,1.4080
1056.50,1.4033
1056.00,1.3977
1055.50,1.3928
1055.00,1.3891
1054.50,1.3849
1054.00,1.3798
1053.50,1.3753
1053.00,1.3718
1052.50,1.3679
1052.00,1.3632
1051.50,1.3596
1051.00,1.3571
1050.50,1.3538
1050.00,1.3493
1049.50,1.3457
1049.00,1.3436
1048.50,1.3411
1048.00,1.3379
1047.50,1.3356
1047.00,1.3343
1046.50,1.3325
1046.00,1.3301
1045.50,1.3284
1045.00,1.3276
1044.50,1.3266
1044.00,1.3250
1043.50,1.3242
1043.00,1.3245
1042.50,1.3244
1042.00,1.3234
1041.50,1.3233
1041.00,1.3243
1040.50,1.3252
1040.00,1.3253
1039.50,1.3256
1039.00,1.3267
1038.50,1.3276
1038.00,1.3281
1037.50,1.3295
1037.00,1.3318
1036.50,1.3336
1036.00,1.3346
1035.50,1.3362
1035.00,1.3387
1034.50,1.3410
1034.00,1.3426
1033.50,1.3446
1033.00,1.3474
1032.50,1.3498
1032.00,1.3515
1031.50,1.3539
1031.00,1.3575
1030.50,1.3607
1030.00,1.3632
1029.50,1.3661
1029.00,1.3698
1028.50,1.3728
1028.00,1.3750
1027.50,1.3776
1027.00,1.3811
1026.50,1.3841
1026.00,1.3862
1025.50,1.3888
1025.00,1.3921
1024.50,1.3947
1024.00,1.3962
1023.50,1.3978
1023.00,1.3998
1022.50,1.4009
1022.00,1.4007
1021.50,1.4005
1021.00,1.4009
1020.50,1.4002
1020.00,1.3979
1019.50,1.3953
1019.00,1.3925
1018.50,1.3883
1018.00,1.3824
1017.50,1.3759
1017.00,1.3690
1016.50,1.3602
1016.00,1.3493
1015.50,1.3376
1015.00,1.3255
1014.50,1.3117
1014.00,1.2959
1013.50,1.2792
1013.00,1.2620
1012.50,1.2433
1012.00,1.2233
1011.50,1.2028
1011.00,1.1823
1010.50,1.1610
1010.00,1.1389
1009.50,1.1169
1009.00,1.0954
1008.50,1.0738
1008.00,1.0520
1007.50,1.0308
1007.00,1.0103
1006.50,0.9902
1006.00,0.9703
1005.50,0.9512
1005.00,0.9330
1004.50,0.9154
1004.00,0.8983
1003.50,0.8820
1003.00,0.8666
1002.50,0.8519
1002.00,0.8375
1001.50,0.8240
1001.00,0.8112
1000.50,0.7990
1000.00,0.7874
999.50,0.7765
999.00,0.7665
998.50,0.7570
998.00,0.7479
997.50,0.7394
997.00,0.7316
996.50,0.7243
996.00,0.7173
995.50,0.7107
995.00,0.7047
994.50,0.6991
994.00,0.6936
993.50,0.6886
993.00,0.6840
992.50,0.6796
992.00,0.6754
991.50,0.6717
991.00,0.6683
990.50,0.6650
990.00,0.6619
989.50,0.6591
989.00,0.6566
988.50,0.6543
988.00,0.6521
987.50,0.6501
987.00,0.6484
986.50,0.6468
986.00,0.6452
985.50,0.6438
985.00,0.6428
984.50,0.6418
984.00,0.6409
983.50,0.6401
983.00,0.6396
982.50,0.6392
982.00,0.6387
981.50,0.6384
981.00,0.6384
980.50,0.6384
980.00,0.6383
979.50,0.6384
979.00,0.6388
978.50,0.6391
978.00,0.6395
977.50,0.6401
977.00,0.6408
976.50,0.6416
976.00,0.6424
975.50,0.6432
975.00,0.6443
974.50,0.6454
974.00,0.6464
973.50,0.6476
973.00,0.6490
972.50,0.6504
972.00,0.6518
971.50,0.6532
971.00,0.6548
970.50,0.6564
970.00,0.6579
969.50,0.6596
969.00,0.6615
968.50,0.6633
968.00,0.6652
967.50,0.6671
967.00,0.6693
966.50,0.6715
966.00,0.6736
965.50,0.6758
965.00,0.6782
964.50,0.6806
964.00,0.6829
963.50,0.6853
963.00,0.6879
962.50,0.6905
962.00,0.6930
961.50,0.6957
961.00,0.6985
960.50,0.7014
960.00,0.7041
959.50,0.7069
959.00,0.7098
958.50,0.7127
958.00,0.7154
957.50,0.7182
957.00,0.7211
956.50,0.7240
956.00,0.7266
955.50,0.7294
955.00,0.7322
954.50,0.7350
954.00,0.7375
953.50,0.7401
953.00,0.7427
952.50,0.7452
952.00,0.7476
951.50,0.7500
951.00,0.7527
950.50,0.7554
950.00,0.7580
949.50,0.7608
949.00,0.7639
948.50,0.7669
948.00,0.7698
947.50,0.7728
947.00,0.7761
946.50,0.7793
946.00,0.7826
945.50,0.7859
945.00,0.7895
944.50,0.7930
944.00,0.7964
943.50,0.7999
943.00,0.8036
942.50,0.8073
942.00,0.8109
941.50,0.8147
941.00,0.8187
940.50,0.8227
940.00,0.8266
939.50,0.8306
939.00,0.8348
938.50,0.8389
938.00,0.8429
937.50,0.8470
937.00,0.8513
936.50,0.8556
936.00,0.8599
935.50,0.8644
935.00,0.8691
934.50,0.8737
934.00,0.8782
933.50,0.8829
933.00,0.8878
932.50,0.8927
932.00,0.8974
931.50,0.9023
931.00,0.9075
930.50,0.9127
930.00,0.9178
929.50,0.9229
929.00,0.9282
928.50,0.9334
928.00,0.9384
927.50,0.9436
927.00,0.9491
926.50,0.9545
926.00,0.9597
925.50,0.9651
925.00,0.9709
924.50,0.9766
924.00,0.9821
923.50,0.9876
923.00,0.9935
922.50,0.9993
922.00,1.0051
921.50,1.0112
921.00,1.0177
920.50,1.0243
920.00,1.0307
919.50,1.0373
919.00,1.0444
918.50,1.0513
918.00,1.0580
917.50,1.0647
917.00,1.0718
916.50,1.0786
916.00,1.0850
915.50,1.0916
915.00,1.0983
914.50,1.1047
914.00,1.1106
913.50,1.1164
913.00,1.1226
912.50,1.1285
912.00,1.1340
911.50,1.1393
911.00,1.1449
910.50,1.1502
910.00,1.1550
909.50,1.1598
909.00,1.1650
908.50,1.1700
908.00,1.1745
907.50,1.1791
907.00,1.1843
906.50,1.1894
906.00,1.1943
905.50,1.1995
905.00,1.2054
904.50,1.2112
904.00,1.2167
903.50,1.2224
903.00,1.2288
902.50,1.2351
902.00,1.2411
901.50,1.2473
901.00,1.2543
900.50,1.2613
900.00,1.2680
899.50,1.2751
899.00,1.2828
898.50,1.2905
898.00,1.2977
897.50,1.3053
897.00,1.3133
896.50,1.3210
896.00,1.3281
895.50,1.3355
895.00,1.3436
894.50,1.3517
894.00,1.3590
893.50,1.3666
893.00,1.3749
892.50,1.3833
892.00,1.3913
891.50,1.3999
891.00,1.4092
890.50,1.4181
890.00,1.4261
889.50,1.4343
889.00,1.4433
888.50,1.4521
888.00,1.4602
887.50,1.4690
887.00,1.4793
886.50,1.4898
886.00,1.4998
885.50,1.5102
885.00,1.5214
884.50,1.5322
884.00,1.5420
883.50,1.5524
883.00,1.5642
882.50,1.5758
882.00,1.5864
881.50,1.5979
881.00,1.6112
880.50,1.6245
880.00,1.6367
879.50,1.6492
879.00,1.6629
878.50,1.6763
878.00,1.6889
877.50,1.7029
877.00,1.7189
876.50,1.7338
876.00,1.7465
875.50,1.7598
875.00,1.7759
874.50,1.7924
874.00,1.8074
873.50,1.8230
873.00,1.8400
872.50,1.8558
872.00,1.8689
871.50,1.8826
871.00,1.8983
870.50,1.9125
870.00,1.9233
869.50,1.9342
869.00,1.9470
868.50,1.9586
868.00,1.9669
867.50,1.9755
867.00,1.9856
866.50,1.9934
866.00,1.9974
865.50,2.0022
865.00,2.0094
864.50,2.0147
864.00,2.0160
863.50,2.0177
863.00,2.0224
862.50,2.0263
862.00,2.0278
861.50,2.0309
861.00,2.0372
860.50,2.0418
860.00,2.0427
859.50,2.0441
859.00,2.0489
858.50,2.0537
858.00,2.0568
857.50,2.0623
857.00,2.0717
856.50,2.0796
856.00,2.0838
855.50,2.0892
855.00,2.0989
854.50,2.1090
854.00,2.1168
853.50,2.1262
853.00,2.1387
852.50,2.1492
852.00,2.1554
851.50,2.1631
851.00,2.1754
850.50,2.1870
850.00,2.1946
849.50,2.2031
849.00,2.2149
848.50,2.2244
848.00,2.2302
847.50,2.2388
847.00,2.2517
846.50,2.2608
846.00,2.2631
845.50,2.2675
845.00,2.2776
844.50,2.2848
844.00,2.2849
843.50,2.2865
843.00,2.2940
842.50,2.2997
842.00,2.2986
841.50,2.2982
841.00,2.3030
840.50,2.3061
840.00,2.3034
839.50,2.3024
839.00,2.3075
838.50,2.3118
838.00,2.3110
837.50,2.3120
837.00,2.3184
836.50,2.3235
836.00,2.3246
835.50,2.3296
835.00,2.3415
834.50,2.3507
834.00,2.3519
833.50,2.3539
833.00,2.3620
832.50,2.3682
832.00,2.3683
831.50,2.3711
831.00,2.3808
830.50,2.3865
830.00,2.3831
829.50,2.3827
829.00,2.3925
828.50,2.4022
828.00,2.4048
827.50,2.4107
827.00,2.4263
826.50,2.4393
826.00,2.4425
825.50,2.4489
825.00,2.4655
824.50,2.4763
824.00,2.4724
823.50,2.4697
823.00,2.4780
822.50,2.4831
822.00,2.4783
821.50,2.4786
821.00,2.4914
820.50,2.5027
820.00,2.5035
819.50,2.5049
819.00,2.5123
818.50,2.5142
818.00,2.5069
817.50,2.5045
817.00,2.5115
816.50,2.5129
816.00,2.5023
815.50,2.4943
815.00,2.4970
814.50,2.4990
814.00,2.4944
813.50,2.4956
813.00,2.5088
812.50,2.5196
812.00,2.5183
811.50,2.5174
811.00,2.5252
810.50,2.5295
810.00,2.5225
809.50,2.5157
809.00,2.5175
808.50,2.5189
808.00,2.5132
807.50,2.5101
807.00,2.5157
806.50,2.5204
806.00,2.5191
805.50,2.5219
805.00,2.5327
804.50,2.5382
804.00,2.5315
803.50,2.5248
803.00,2.5274
802.50,2.5313
802.00,2.5294
801.50,2.5281
801.00,2.5312
800.50,2.5305
800.00,2.5241
799.50,2.5239
799.00,2.5328
798.50,2.5364
798.00,2.5291
797.50,2.5249
797.00,2.5316
796.50,2.5384
796.00,2.5371
795.50,2.5363
795.00,2.5416
794.50,2.5433
794.00,2.5367
793.50,2.5326
793.00,2.5348
792.50,2.5317
792.00,2.5207
791.50,2.5154
791.00,2.5223
790.50,2.5291
790.00,2.5276
789.50,2.5278
789.00,2.5358
788.50,2.5409
788.00,2.5366
787.50,2.5337
787.00,2.5381
786.50,2.5403
786.00,2.5348
785.50,2.5319
785.00,2.5369
784.50,2.5377
784.00,2.5279
783.50,2.5205
783.00,2.5238
782.50,2.5285
782.00,2.5275
781.50,2.5288
781.00,2.5372
780.50,2.5423
780.00,2.5374
779.50,2.5334
779.00,2.5379
778.50,2.5422
778.00,2.5387
777.50,2.5353
777.00,2.5381
776.50,2.5392
776.00,2.5337
775.50,2.5307
775.00,2.5348
774.50,2.5373
774.00,2.5343
773.50,2.5354
773.00,2.5442
772.50,2.5498
772.00,2.5468
771.50,2.5453
771.00,2.5511
770.50,2.5538
770.00,2.5475
769.50,2.5433
769.00,2.5473
768.50,2.5487
768.00,2.5408
767.50,2.5340
767.00,2.5358
766.50,2.5388
766.00,2.5379
765.50,2.5412
765.00,2.5518
764.50,2.5569
764.00,2.5497
763.50,2.5419
763.00,2.5424
762.50,2.5441
762.00,2.5403
761.50,2.5383
761.00,2.5435
760.50,2.5468
760.00,2.5427
759.50,2.5391
759.00,2.5400
758.50,2.5384
758.00,2.5317
757.50,2.5285
757.00,2.5325
756.50,2.5348
756.00,2.5324
755.50,2.5359
755.00,2.5489
754.50,2.5597
754.00,2.5602
753.50,2.5595
753.00,2.5631
752.50,2.5616
752.00,2.5507
751.50,2.5425
751.00,2.5443
750.50,2.5473
750.00,2.5449
749.50,2.5446
749.00,2.5507
748.50,2.5537
748.00,2.5479
747.50,2.5441
747.00,2.5496
746.50,2.5549
746.00,2.5523
745.50,2.5504
745.00,2.5564
744.50,2.5623
744.00,2.5611
743.50,2.5602
743.00,2.5654
742.50,2.5683
742.00,2.5626
741.50,2.5569
741.00,2.5578
740.50,2.5589
740.00,2.5543
739.50,2.5503
739.00,2.5520
738.50,2.5536
738.00,2.5519
737.50,2.5539
737.00,2.5625
736.50,2.5683
736.00,2.5660
735.50,2.5648
735.00,2.5704
734.50,2.5747
734.00,2.5708
733.50,2.5657
733.00,2.5657
732.50,2.5645
732.00,2.5578
731.50,2.5527
731.00,2.5530
730.50,2.5510
730.00,2.5437
729.50,2.5409
729.00,2.5485
728.50,2.5577
728.00,2.5614
727.50,2.5661
727.00,2.5767
726.50,2.5834
726.00,2.5773
725.50,2.5672
725.00,2.5636
724.50,2.5639
724.00,2.5635
723.50,2.5653
723.00,2.5698
722.50,2.5686
722.00,2.5591
721.50,2.5519
721.00,2.5544
720.50,2.5600
720.00,2.5616
719.50,2.5659
719.00,2.5774
718.50,2.5855
718.00,2.5818
717.50,2.5732
717.00,2.5682
716.50,2.5648
716.00,2.5601
715.50,2.5595
715.00,2.5657
714.50,2.5701
714.00,2.5672
713.50,2.5635
713.00,2.5649
712.50,2.5662
712.00,2.5623
711.50,2.5591
711.00,2.5612
710.50,2.5628
710.00,2.5596
709.50,2.5594
709.00,2.5679
708.50,2.5781
708.00,2.5826
707.50,2.5837
707.00,2.5844
706.50,2.5803
706.00,2.5707
705.50,2.5645
705.00,2.5662
704.50,2.5683
704.00,2.5654
703.50,2.5632
703.00,2.5661
702.50,2.5677
702.00,2.5642
701.50,2.5629
701.00,2.5684
700.50,2.5719
700.00,2.5668
699.50,2.5615
699.00,2.5636
698.50,2.5672
698.00,2.5645
697.50,2.5590
697.00,2.5567
696.50,2.5565
696.00,2.5562
695.50,2.5582
695.00,2.5628
694.50,2.5646
694.00,2.5607
693.50,2.5582
693.00,2.5626
692.50,2.5686
692.00,2.5699
691.50,2.5704
691.00,2.5753
690.50,2.5805
690.00,2.5802
689.50,2.5780
689.00,2.5797
688.50,2.5814
688.00,2.5802
687.50,2.5819
687.00,2.5888
686.50,2.5910
686.00,2.5832
685.50,2.5760
685.00,2.5780
684.50,2.5840
684.00,2.5843
683.50,2.5803
683.00,2.5774
682.50,2.5744
682.00,2.5710
681.50,2.5728
681.00,2.5816
680.50,2.5893
680.00,2.5881
679.50,2.5834
679.00,2.5825
678.50,2.5829
678.00,2.5804
677.50,2.5793
677.00,2.5834
676.50,2.5869
676.00,2.5855
675.50,2.5842
675.00,2.5892
674.50,2.5971
674.00,2.6005
673.50,2.5980
673.00,2.5939
672.50,2.5902
672.00,2.5874
671.50,2.5871
671.00,2.5870
670.50,2.5808
670.00,2.5663
669.50,2.5504
669.00,2.5425
668.50,2.5500
668.00,2.5772
667.50,2.6064
667.00,2.6162
666.50,2.6128
666.00,2.6064
665.50,2.6042
665.00,2.6091
664.50,2.6144
664.00,2.6152
663.50,2.6135
663.00,2.6099
662.50,2.6018
662.00,2.5902
661.50,2.5825
661.00,2.5851
660.50,2.5931
660.00,2.5980
659.50,2.5985
659.00,2.5964
658.50,2.5916
658.00,2.5861
657.50,2.5836
657.00,2.5845
656.50,2.5852
656.00,2.5832
655.50,2.5837
655.00,2.5909
654.50,2.5977
654.00,2.5967
653.50,2.5920
653.00,2.5913
652.50,2.5954
652.00,2.6017
651.50,2.6076
651.00,2.6101
650.50,2.6106
650.00,2.6086
649.50,2.6027
649.00,2.5975
648.50,2.5940
648.00,2.5912
647.50,2.5900
647.00,2.5908
646.50,2.5897
646.00,2.5863
645.50,2.5854
645.00,2.5904
644.50,2.5984
644.00,2.6047
643.50,2.6085
643.00,2.6081
642.50,2.6030
642.00,2.5968
641.50,2.5955
641.00,2.5988
640.50,2.5988
640.00,2.5910
639.50,2.5818
639.00,2.5813
638.50,2.5907
638.00,2.6050
637.50,2.6206
637.00,2.6360
636.50,2.6483
636.00,2.6533
635.50,2.6510
635.00,2.6447
634.50,2.6333
634.00,2.6188
633.50,2.6063
633.00,2.5988
632.50,2.5951
632.00,2.5930
631.50,2.5939
631.00,2.5987
630.50,2.6026
630.00,2.6019
629.50,2.5988
629.00,2.5968
628.50,2.5968
628.00,2.5973
627.50,2.5983
627.00,2.6023
626.50,2.6078
626.00,2.6098
625.50,2.6062
625.00,2.6007
624.50,2.5988
624.00,2.6005
623.50,2.6026
623.00,2.6041
622.50,2.6072
622.00,2.6142
621.50,2.6225
621.00,2.6279
620.50,2.6287
620.00,2.6276
619.50,2.6276
619.00,2.6287
618.50,2.6281
618.00,2.6246
617.50,2.6203
617.00,2.6167
616.50,2.6145
616.00,2.6135
615.50,2.6127
615.00,2.6137
614.50,2.6186
614.00,2.6263
613.50,2.6338
613.00,2.6383
612.50,2.6381
612.00,2.6357
611.50,2.6312
611.00,2.6250
610.50,2.6212
610.00,2.6196
609.50,2.6194
609.00,2.6237
608.50,2.6311
608.00,2.6376
607.50,2.6382
607.00,2.6310
606.50,2.6218
606.00,2.6162
605.50,2.6151
605.00,2.6182
604.50,2.6234
604.00,2.6277
603.50,2.6280
603.00,2.6294
602.50,2.6412
602.00,2.6587
601.50,2.6518
601.00,2.6018
600.50,2.5394
600.00,2.5076
599.50,2.5219
599.00,2.5666
598.50,2.6095
598.00,2.6290
597.50,2.6283
597.00,2.6212
596.50,2.6153
596.00,2.6147
595.50,2.6199
595.00,2.6289
594.50,2.6404
594.00,2.6501
593.50,2.6521
593.00,2.6489
592.50,2.6464
592.00,2.6452
591.50,2.6419
591.00,2.6378
590.50,2.6357
590.00,2.6359
589.50,2.6365
589.00,2.6353
588.50,2.6344
588.00,2.6369
587.50,2.6424
587.00,2.6489
586.50,2.6562
586.00,2.6623
585.50,2.6604
585.00,2.6487
584.50,2.6359
584.00,2.6274
583.50,2.6202
583.00,2.6134
582.50,2.6118
582.00,2.6196
581.50,2.6330
581.00,2.6446
580.50,2.6525
580.00,2.6575
579.50,2.6557
579.00,2.6495
578.50,2.6451
578.00,2.6419
577.50,2.6382
577.00,2.6373
576.50,2.6416
576.00,2.6501
575.50,2.6582
575.00,2.6680
574.50,2.6835
574.00,2.6930
573.50,2.6833
573.00,2.6622
572.50,2.6492
572.00,2.6518
571.50,2.6563
571.00,2.6491
570.50,2.6382
570.00,2.6362
569.50,2.6412
569.00,2.6501
568.50,2.6683
568.00,2.6942
567.50,2.7078
567.00,2.7018
566.50,2.6949
566.00,2.6985
565.50,2.7034
565.00,2.7003
564.50,2.6907
564.00,2.6835
563.50,2.6762
563.00,2.6612
562.50,2.6475
562.00,2.6460
561.50,2.6499
561.00,2.6504
560.50,2.6517
560.00,2.6591
559.50,2.6661
559.00,2.6678
558.50,2.6691
558.00,2.6689
557.50,2.6607
557.00,2.6510
556.50,2.6526
556.00,2.6647
555.50,2.6716
555.00,2.6658
554.50,2.6591
554.00,2.6614
553.50,2.6584
553.00,2.6425
552.50,2.6331
552.00,2.6410
551.50,2.6536
551.00,2.6610
550.50,2.6688
550.00,2.6797
549.50,2.6765
549.00,2.6555
548.50,2.6416
548.00,2.6452
547.50,2.6479
547.00,2.6392
546.50,2.6317
546.00,2.6367
545.50,2.6478
545.00,2.6536
544.50,2.6577
544.00,2.6616
543.50,2.6529
543.00,2.6325
542.50,2.6219
542.00,2.6298
541.50,2.6374
541.00,2.6336
540.50,2.6328
540.00,2.6462
539.50,2.6619
539.00,2.6648
538.50,2.6627
538.00,2.6665
537.50,2.6616
537.00,2.6420
536.50,2.6298
536.00,2.6360
535.50,2.6438
535.00,2.6433
534.50,2.6503
534.00,2.6736
533.50,2.6903
533.00,2.6781
532.50,2.6641
532.00,2.6685
531.50,2.6637
531.00,2.6390
530.50,2.6210
530.00,2.6222
529.50,2.6217
529.00,2.6029
528.50,2.5863
528.00,2.5922
527.50,2.6079
527.00,2.6148
526.50,2.6189
526.00,2.6266
525.50,2.6218
525.00,2.6033
524.50,2.5975
524.00,2.6189
523.50,2.6455
523.00,2.6491
522.50,2.6417
522.00,2.6448
521.50,2.6469
521.00,2.6339
520.50,2.6231
520.00,2.6299
519.50,2.6368
519.00,2.6290
518.50,2.6309
518.00,2.6590
517.50,2.6813
517.00,2.6749
516.50,2.6649
516.00,2.6703
515.50,2.6731
515.00,2.6624
514.50,2.6655
514.00,2.6945
513.50,2.7112
513.00,2.6943
512.50,2.6756
512.00,2.6785
511.50,2.6808
511.00,2.6572
510.50,2.6322
510.00,2.6352
509.50,2.6459
509.00,2.6372
508.50,2.6324
508.00,2.6602
507.50,2.6941
507.00,2.6880
506.50,2.6626
506.00,2.6594
505.50,2.6689
505.00,2.6704
504.50,2.6803
504.00,2.7095
503.50,2.7165
503.00,2.6735
502.50,2.6350
502.00,2.6433
501.50,2.6645
501.00,2.6575
500.50,2.6361
500.00,2.6314
499.50,2.6374
499.00,2.6391
498.50,2.6495
498.00,2.6709
497.50,2.6648
497.00,2.6192
496.50,2.5862
496.00,2.6003
495.50,2.6324
495.00,2.6421
494.50,2.6435
494.00,2.6536
493.50,2.6466
493.00,2.6110
492.50,2.5874
492.00,2.6070
491.50,2.6395
491.00,2.6397
490.50,2.6368
490.00,2.6695
489.50,2.7061
489.00,2.7069
488.50,2.6949
488.00,2.7009
487.50,2.7001
487.00,2.6695
486.50,2.6431
486.00,2.6474
485.50,2.6497
485.00,2.6235
484.50,2.6155
484.00,2.6636
483.50,2.7104
483.00,2.6784
482.50,2.6161
482.00,2.5817
481.50,2.5680
481.00,2.5591
480.50,2.5738
480.00,2.6222
479.50,2.6514
479.00,2.6192
478.50,2.5869
478.00,2.6040
477.50,2.6414
477.00,2.6489
476.50,2.6426
476.00,2.6534
475.50,2.6454
475.00,2.6023
474.50,2.5675
474.00,2.5679
473.50,2.5787
473.00,2.5755
472.50,2.5935
472.00,2.6585
471.50,2.6929
471.00,2.6369
470.50,2.5712
470.00,2.5506
469.50,2.5519
469.00,2.5436
468.50,2.5427
468.00,2.5738
467.50,2.6022
467.00,2.5927
466.50,2.5964
466.00,2.6386
465.50,2.6502
465.00,2.5919
464.50,2.5407
464.00,2.5575
463.50,2.6093
463.00,2.6266
462.50,2.6207
462.00,2.6303
461.50,2.6261
461.00,2.5866
460.50,2.5713
460.00,2.6207
459.50,2.6816
459.00,2.6887
458.50,2.6851
458.00,2.7383
457.50,2.7712
457.00,2.6912
456.50,2.6232
456.00,2.6387
455.50,2.6878
455.00,2.7150
454.50,2.7764
454.00,2.9342
453.50,3.0153
453.00,2.8516
452.50,2.7058
452.00,2.6889
451.50,2.7280
451.00,2.7052
450.50,2.6549
450.00,2.6347
449.50,2.6094
449.00,2.5539
448.50,2.5249
448.00,2.5710
447.50,2.6401
447.00,2.6461
446.50,2.6382
446.00,2.6924
445.50,2.7578
445.00,2.7359
444.50,2.7029
444.00,2.7412
443.50,2.7585
443.00,2.6588
442.50,2.5565
442.00,2.5376
441.50,2.5523
441.00,2.5394
440.50,2.5424
440.00,2.6033
439.50,2.6590
439.00,2.6266
438.50,2.5823
438.00,2.6055
437.50,2.6452
437.00,2.6170
436.50,2.5858
436.00,2.6218
435.50,2.6554
435.00,2.5959
434.50,2.5314
434.00,2.5541
433.50,2.6220
433.00,2.6314
432.50,2.6088
432.00,2.6227
431.50,2.6404
431.00,2.6054
430.50,2.5527
430.00,2.5650
429.50,2.6166
429.00,2.6308
428.50,2.6430
428.00,2.6937
427.50,2.6769
427.00,2.5620
426.50,2.4995
426.00,2.5557
425.50,2.6714
425.00,2.7144
424.50,2.6818
424.00,2.6774
423.50,2.6543
423.00,2.5560
422.50,2.5195
422.00,2.6183
421.50,2.7294
421.00,2.6557
420.50,2.5325
420.00,2.5132
419.50,2.5236
419.00,2.4169
418.50,2.3505
418.00,2.4361
417.50,2.5588
417.00,2.5784
416.50,2.5856
416.00,2.6637
415.50,2.6890
415.00,2.5526
414.50,2.4550
414.00,2.4882
413.50,2.5556
413.00,2.5163
412.50,2.4688
412.00,2.5244
411.50,2.6084
411.00,2.5855
410.50,2.5568
410.00,2.6395
409.50,2.7183
409.00,2.5909
408.50,2.4563
408.00,2.4181
407.50,2.3815
407.00,2.2903
406.50,2.2564
406.00,2.3561
405.50,2.4927
405.00,2.4261
404.50,2.2915
404.00,2.2634
403.50,2.3035
403.00,2.3297
402.50,2.3859
402.00,2.5835
401.50,2.8220
401.00,2.6795
400.50,2.5812
400.00,2.7226
