Created as New Dataset,Sample 016 By irlear Date Monday, July 06 2009
cm-1,A
4000.00,0.0374
3999.50,0.0374
3999.00,0.0374
3998.50,0.0374
3998.00,0.0374
3997.50,0.0373
3997.00,0.0373
3996.50,0.0373
3996.00,0.0373
3995.50,0.0373
3995.00,0.0373
3994.50,0.0373
3994.00,0.0373
3993.50,0.0373
3993.00,0.0373
3992.50,0.0373
3992.00,0.0373
3991.50,0.0373
3991.00,0.0373
3990.50,0.0373
3990.00,0.0373
3989.50,0.0372
3989.00,0.0372
3988.50,0.0372
3988.00,0.0372
3987.50,0.0372
3987.00,0.0372
3986.50,0.0372
3986.00,0.0372
3985.50,0.0372
3985.00,0.0372
3984.50,0.0372
3984.00,0.0372
3983.50,0.0372
3983.00,0.0372
3982.50,0.0372
3982.00,0.0372
3981.50,0.0372
3981.00,0.0372
3980.50,0.0371
3980.00,0.0371
3979.50,0.0371
3979.00,0.0371
3978.50,0.0371
3978.00,0.0371
3977.50,0.0371
3977.00,0.0371
3976.50,0.0371
3976.00,0.0371
3975.50,0.0371
3975.00,0.0371
3974.50,0.0370
3974.00,0.0370
3973.50,0.0370
3973.00,0.0370
3972.50,0.0370
3972.00,0.0370
3971.50,0.0370
3971.00,0.0370
3970.50,0.0370
3970.00,0.0370
3969.50,0.0370
3969.00,0.0370
3968.50,0.0370
3968.00,0.0370
3967.50,0.0370
3967.00,0.0370
3966.50,0.0370
3966.00,0.0370
3965.50,0.0370
3965.00,0.0370
3964.50,0.0370
3964.00,0.0370
3963.50,0.0370
3963.00,0.0370
3962.50,0.0370
3962.00,0.0369
3961.50,0.0369
3961.00,0.0369
3960.50,0.0369
3960.00,0.0369
3959.50,0.0369
3959.00,0.0369
3958.50,0.0369
3958.00,0.0369
3957.50,0.0369
3957.00,0.0369
3956.50,0.0369
3956.00,0.0369
3955.50,0.0369
3955.00,0.0369
3954.50,0.0369
3954.00,0.0369
3953.50,0.0369
3953.00,0.0369
3952.50,0.0369
3952.00,0.0369
3951.50,0.0368
3951.00,0.0368
3950.50,0.0368
3950.00,0.0368
3949.50,0.0368
3949.00,0.0368
3948.50,0.0368
3948.00,0.0368
3947.50,0.0368
3947.00,0.0368
3946.50,0.0368
3946.00,0.0368
3945.50,0.0368
3945.00,0.0368
3944.50,0.0369
3944.00,0.0368
3943.50,0.0368
3943.00,0.0367
3942.50,0.0367
3942.00,0.0367
3941.50,0.0367
3941.00,0.0367
3940.50,0.0368
3940.00,0.0368
3939.50,0.0368
3939.00,0.0368
3938.50,0.0368
3938.00,0.0368
3937.50,0.0368
3937.00,0.0368
3936.50,0.0368
3936.00,0.0368
3935.50,0.0368
3935.00,0.0368
3934.50,0.0368
3934.00,0.0368
3933.50,0.0368
3933.00,0.0367
3932.50,0.0367
3932.00,0.0367
3931.50,0.0366
3931.00,0.0366
3930.50,0.0366
3930.00,0.0366
3929.50,0.0367
3929.00,0.0367
3928.50,0.0367
3928.00,0.0367
3927.50,0.0367
3927.00,0.0368
3926.50,0.0367
3926.00,0.0367
3925.50,0.0367
3925.00,0.0366
3924.50,0.0366
3924.00,0.0366
3923.50,0.0366
3923.00,0.0366
3922.50,0.0367
3922.00,0.0367
3921.50,0.0367
3921.00,0.0367
3920.50,0.0367
3920.00,0.0367
3919.50,0.0367
3919.00,0.0367
3918.50,0.0366
3918.00,0.0366
3917.50,0.0367
3917.00,0.0367
3916.50,0.0367
3916.00,0.0366
3915.50,0.0366
3915.00,0.0366
3914.50,0.0367
3914.00,0.0367
3913.50,0.0368
3913.00,0.0368
3912.50,0.0368
3912.00,0.0368
3911.50,0.0368
3911.00,0.0368
3910.50,0.0368
3910.00,0.0368
3909.50,0.0368
3909.00,0.0368
3908.50,0.0368
3908.00,0.0368
3907.50,0.0368
3907.00,0.0368
3906.50,0.0367
3906.00,0.0367
3905.50,0.0366
3905.00,0.0364
3904.50,0.0365
3904.00,0.0366
3903.50,0.0368
3903.00,0.0367
3902.50,0.0365
3902.00,0.0365
3901.50,0.0367
3901.00,0.0367
3900.50,0.0365
3900.00,0.0364
3899.50,0.0365
3899.00,0.0367
3898.50,0.0367
3898.00,0.0366
3897.50,0.0367
3897.00,0.0368
3896.50,0.0369
3896.00,0.0369
3895.50,0.0369
3895.00,0.0369
3894.50,0.0369
3894.00,0.0368
3893.50,0.0368
3893.00,0.0368
3892.50,0.0367
3892.00,0.0366
3891.50,0.0366
3891.00,0.0367
3890.50,0.0368
3890.00,0.0368
3889.50,0.0368
3889.00,0.0369
3888.50,0.0369
3888.00,0.0370
3887.50,0.0369
3887.00,0.0368
3886.50,0.0367
3886.00,0.0367
3885.50,0.0368
3885.00,0.0368
3884.50,0.0368
3884.00,0.0367
3883.50,0.0367
3883.00,0.0368
3882.50,0.0368
3882.00,0.0368
3881.50,0.0367
3881.00,0.0367
3880.50,0.0367
3880.00,0.0367
3879.50,0.0367
3879.00,0.0367
3878.50,0.0368
3878.00,0.0369
3877.50,0.0369
3877.00,0.0370
3876.50,0.0370
3876.00,0.0370
3875.50,0.0369
3875.00,0.0368
3874.50,0.0368
3874.00,0.0368
3873.50,0.0368
3873.00,0.0367
3872.50,0.0367
3872.00,0.0368
3871.50,0.0368
3871.00,0.0368
3870.50,0.0368
3870.00,0.0368
3869.50,0.0368
3869.00,0.0368
3868.50,0.0368
3868.00,0.0368
3867.50,0.0369
3867.00,0.0369
3866.50,0.0369
3866.00,0.0369
3865.50,0.0369
3865.00,0.0369
3864.50,0.0370
3864.00,0.0369
3863.50,0.0368
3863.00,0.0368
3862.50,0.0368
3862.00,0.0369
3861.50,0.0370
3861.00,0.0371
3860.50,0.0371
3860.00,0.0371
3859.50,0.0372
3859.00,0.0372
3858.50,0.0372
3858.00,0.0372
3857.50,0.0371
3857.00,0.0371
3856.50,0.0371
3856.00,0.0370
3855.50,0.0367
3855.00,0.0366
3854.50,0.0371
3854.00,0.0377
3853.50,0.0376
3853.00,0.0371
3852.50,0.0368
3852.00,0.0370
3851.50,0.0374
3851.00,0.0375
3850.50,0.0375
3850.00,0.0374
3849.50,0.0375
3849.00,0.0376
3848.50,0.0377
3848.00,0.0377
3847.50,0.0377
3847.00,0.0378
3846.50,0.0378
3846.00,0.0378
3845.50,0.0378
3845.00,0.0379
3844.50,0.0378
3844.00,0.0379
3843.50,0.0379
3843.00,0.0380
3842.50,0.0380
3842.00,0.0379
3841.50,0.0379
3841.00,0.0380
3840.50,0.0380
3840.00,0.0380
3839.50,0.0378
3839.00,0.0377
3838.50,0.0377
3838.00,0.0379
3837.50,0.0382
3837.00,0.0384
3836.50,0.0383
3836.00,0.0381
3835.50,0.0381
3835.00,0.0383
3834.50,0.0385
3834.00,0.0385
3833.50,0.0384
3833.00,0.0384
3832.50,0.0385
3832.00,0.0386
3831.50,0.0386
3831.00,0.0387
3830.50,0.0386
3830.00,0.0386
3829.50,0.0386
3829.00,0.0387
3828.50,0.0388
3828.00,0.0388
3827.50,0.0387
3827.00,0.0387
3826.50,0.0387
3826.00,0.0387
3825.50,0.0387
3825.00,0.0387
3824.50,0.0387
3824.00,0.0388
3823.50,0.0388
3823.00,0.0387
3822.50,0.0387
3822.00,0.0387
3821.50,0.0387
3821.00,0.0386
3820.50,0.0385
3820.00,0.0385
3819.50,0.0386
3819.00,0.0386
3818.50,0.0388
3818.00,0.0388
3817.50,0.0388
3817.00,0.0387
3816.50,0.0387
3816.00,0.0389
3815.50,0.0390
3815.00,0.0390
3814.50,0.0389
3814.00,0.0389
3813.50,0.0390
3813.00,0.0391
3812.50,0.0392
3812.00,0.0392
3811.50,0.0392
3811.00,0.0393
3810.50,0.0393
3810.00,0.0392
3809.50,0.0392
3809.00,0.0393
3808.50,0.0392
3808.00,0.0391
3807.50,0.0391
3807.00,0.0393
3806.50,0.0395
3806.00,0.0394
3805.50,0.0394
3805.00,0.0393
3804.50,0.0394
3804.00,0.0395
3803.50,0.0395
3803.00,0.0394
3802.50,0.0392
3802.00,0.0392
3801.50,0.0392
3801.00,0.0394
3800.50,0.0395
3800.00,0.0395
3799.50,0.0395
3799.00,0.0395
3798.50,0.0397
3798.00,0.0397
3797.50,0.0397
3797.00,0.0397
3796.50,0.0398
3796.00,0.0398
3795.50,0.0399
3795.00,0.0399
3794.50,0.0399
3794.00,0.0400
3793.50,0.0401
3793.00,0.0402
3792.50,0.0403
3792.00,0.0403
3791.50,0.0404
3791.00,0.0404
3790.50,0.0405
3790.00,0.0405
3789.50,0.0406
3789.00,0.0406
3788.50,0.0407
3788.00,0.0407
3787.50,0.0408
3787.00,0.0409
3786.50,0.0409
3786.00,0.0410
3785.50,0.0410
3785.00,0.0410
3784.50,0.0411
3784.00,0.0411
3783.50,0.0412
3783.00,0.0413
3782.50,0.0414
3782.00,0.0415
3781.50,0.0416
3781.00,0.0416
3780.50,0.0416
3780.00,0.0416
3779.50,0.0416
3779.00,0.0417
3778.50,0.0417
3778.00,0.0417
3777.50,0.0418
3777.00,0.0420
3776.50,0.0421
3776.00,0.0422
3775.50,0.0422
3775.00,0.0423
3774.50,0.0423
3774.00,0.0424
3773.50,0.0424
3773.00,0.0424
3772.50,0.0425
3772.00,0.0425
3771.50,0.0425
3771.00,0.0425
3770.50,0.0425
3770.00,0.0426
3769.50,0.0426
3769.00,0.0426
3768.50,0.0426
3768.00,0.0427
3767.50,0.0428
3767.00,0.0428
3766.50,0.0428
3766.00,0.0428
3765.50,0.0428
3765.00,0.0428
3764.50,0.0428
3764.00,0.0428
3763.50,0.0429
3763.00,0.0430
3762.50,0.0430
3762.00,0.0430
3761.50,0.0430
3761.00,0.0430
3760.50,0.0430
3760.00,0.0429
3759.50,0.0429
3759.00,0.0428
3758.50,0.0428
3758.00,0.0428
3757.50,0.0428
3757.00,0.0429
3756.50,0.0429
3756.00,0.0429
3755.50,0.0429
3755.00,0.0428
3754.50,0.0429
3754.00,0.0429
3753.50,0.0428
3753.00,0.0426
3752.50,0.0426
3752.00,0.0427
3751.50,0.0428
3751.00,0.0426
3750.50,0.0422
3750.00,0.0421
3749.50,0.0424
3749.00,0.0426
3748.50,0.0425
3748.00,0.0424
3747.50,0.0423
3747.00,0.0423
3746.50,0.0423
3746.00,0.0421
3745.50,0.0419
3745.00,0.0420
3744.50,0.0420
3744.00,0.0420
3743.50,0.0420
3743.00,0.0420
3742.50,0.0419
3742.00,0.0419
3741.50,0.0419
3741.00,0.0420
3740.50,0.0419
3740.00,0.0418
3739.50,0.0418
3739.00,0.0418
3738.50,0.0418
3738.00,0.0417
3737.50,0.0416
3737.00,0.0415
3736.50,0.0415
3736.00,0.0415
3735.50,0.0413
3735.00,0.0411
3734.50,0.0412
3734.00,0.0414
3733.50,0.0415
3733.00,0.0415
3732.50,0.0418
3732.00,0.0421
3731.50,0.0422
3731.00,0.0421
3730.50,0.0420
3730.00,0.0421
3729.50,0.0422
3729.00,0.0423
3728.50,0.0424
3728.00,0.0424
3727.50,0.0424
3727.00,0.0424
3726.50,0.0425
3726.00,0.0425
3725.50,0.0425
3725.00,0.0426
3724.50,0.0427
3724.00,0.0428
3723.50,0.0429
3723.00,0.0430
3722.50,0.0430
3722.00,0.0431
3721.50,0.0432
3721.00,0.0433
3720.50,0.0434
3720.00,0.0435
3719.50,0.0436
3719.00,0.0436
3718.50,0.0437
3718.00,0.0438
3717.50,0.0439
3717.00,0.0440
3716.50,0.0441
3716.00,0.0442
3715.50,0.0442
3715.00,0.0443
3714.50,0.0444
3714.00,0.0445
3713.50,0.0445
3713.00,0.0445
3712.50,0.0446
3712.00,0.0447
3711.50,0.0448
3711.00,0.0447
3710.50,0.0447
3710.00,0.0448
3709.50,0.0450
3709.00,0.0452
3708.50,0.0453
3708.00,0.0454
3707.50,0.0455
3707.00,0.0457
3706.50,0.0458
3706.00,0.0459
3705.50,0.0460
3705.00,0.0460
3704.50,0.0461
3704.00,0.0462
3703.50,0.0462
3703.00,0.0462
3702.50,0.0462
3702.00,0.0462
3701.50,0.0462
3701.00,0.0462
3700.50,0.0463
3700.00,0.0463
3699.50,0.0463
3699.00,0.0464
3698.50,0.0464
3698.00,0.0463
3697.50,0.0463
3697.00,0.0462
3696.50,0.0462
3696.00,0.0461
3695.50,0.0461
3695.00,0.0460
3694.50,0.0460
3694.00,0.0459
3693.50,0.0459
3693.00,0.0458
3692.50,0.0457
3692.00,0.0455
3691.50,0.0454
3691.00,0.0453
3690.50,0.0452
3690.00,0.0450
3689.50,0.0448
3689.00,0.0448
3688.50,0.0449
3688.00,0.0450
3687.50,0.0449
3687.00,0.0448
3686.50,0.0448
3686.00,0.0448
3685.50,0.0448
3685.00,0.0448
3684.50,0.0447
3684.00,0.0447
3683.50,0.0447
3683.00,0.0446
3682.50,0.0446
3682.00,0.0446
3681.50,0.0446
3681.00,0.0445
3680.50,0.0444
3680.00,0.0443
3679.50,0.0443
3679.00,0.0443
3678.50,0.0442
3678.00,0.0442
3677.50,0.0442
3677.00,0.0441
3676.50,0.0442
3676.00,0.0442
3675.50,0.0440
3675.00,0.0438
3674.50,0.0438
3674.00,0.0439
3673.50,0.0441
3673.00,0.0442
3672.50,0.0443
3672.00,0.0443
3671.50,0.0443
3671.00,0.0444
3670.50,0.0445
3670.00,0.0444
3669.50,0.0443
3669.00,0.0442
3668.50,0.0443
3668.00,0.0445
3667.50,0.0447
3667.00,0.0447
3666.50,0.0448
3666.00,0.0450
3665.50,0.0450
3665.00,0.0451
3664.50,0.0451
3664.00,0.0452
3663.50,0.0452
3663.00,0.0453
3662.50,0.0453
3662.00,0.0454
3661.50,0.0454
3661.00,0.0455
3660.50,0.0455
3660.00,0.0456
3659.50,0.0456
3659.00,0.0457
3658.50,0.0458
3658.00,0.0458
3657.50,0.0458
3657.00,0.0458
3656.50,0.0459
3656.00,0.0461
3655.50,0.0461
3655.00,0.0462
3654.50,0.0462
3654.00,0.0463
3653.50,0.0465
3653.00,0.0465
3652.50,0.0465
3652.00,0.0465
3651.50,0.0465
3651.00,0.0464
3650.50,0.0463
3650.00,0.0461
3649.50,0.0462
3649.00,0.0464
3648.50,0.0465
3648.00,0.0465
3647.50,0.0465
3647.00,0.0465
3646.50,0.0466
3646.00,0.0466
3645.50,0.0467
3645.00,0.0469
3644.50,0.0470
3644.00,0.0471
3643.50,0.0471
3643.00,0.0471
3642.50,0.0471
3642.00,0.0470
3641.50,0.0470
3641.00,0.0470
3640.50,0.0470
3640.00,0.0470
3639.50,0.0470
3639.00,0.0470
3638.50,0.0470
3638.00,0.0469
3637.50,0.0469
3637.00,0.0468
3636.50,0.0468
3636.00,0.0468
3635.50,0.0468
3635.00,0.0467
3634.50,0.0466
3634.00,0.0465
3633.50,0.0465
3633.00,0.0464
3632.50,0.0464
3632.00,0.0464
3631.50,0.0464
3631.00,0.0463
3630.50,0.0462
3630.00,0.0461
3629.50,0.0460
3629.00,0.0457
3628.50,0.0455
3628.00,0.0455
3627.50,0.0456
3627.00,0.0457
3626.50,0.0457
3626.00,0.0458
3625.50,0.0458
3625.00,0.0458
3624.50,0.0458
3624.00,0.0458
3623.50,0.0458
3623.00,0.0458
3622.50,0.0457
3622.00,0.0457
3621.50,0.0457
3621.00,0.0457
3620.50,0.0456
3620.00,0.0456
3619.50,0.0457
3619.00,0.0456
3618.50,0.0455
3618.00,0.0454
3617.50,0.0454
3617.00,0.0454
3616.50,0.0455
3616.00,0.0455
3615.50,0.0455
3615.00,0.0455
3614.50,0.0455
3614.00,0.0455
3613.50,0.0454
3613.00,0.0454
3612.50,0.0454
3612.00,0.0455
3611.50,0.0455
3611.00,0.0456
3610.50,0.0456
3610.00,0.0456
3609.50,0.0456
3609.00,0.0456
3608.50,0.0456
3608.00,0.0455
3607.50,0.0454
3607.00,0.0455
3606.50,0.0455
3606.00,0.0456
3605.50,0.0456
3605.00,0.0457
3604.50,0.0458
3604.00,0.0458
3603.50,0.0459
3603.00,0.0459
3602.50,0.0459
3602.00,0.0458
3601.50,0.0458
3601.00,0.0458
3600.50,0.0458
3600.00,0.0458
3599.50,0.0458
3599.00,0.0458
3598.50,0.0459
3598.00,0.0459
3597.50,0.0459
3597.00,0.0460
3596.50,0.0459
3596.00,0.0459
3595.50,0.0459
3595.00,0.0459
3594.50,0.0459
3594.00,0.0459
3593.50,0.0459
3593.00,0.0459
3592.50,0.0459
3592.00,0.0460
3591.50,0.0460
3591.00,0.0461
3590.50,0.0462
3590.00,0.0461
3589.50,0.0460
3589.00,0.0460
3588.50,0.0460
3588.00,0.0458
3587.50,0.0456
3587.00,0.0455
3586.50,0.0455
3586.00,0.0455
3585.50,0.0456
3585.00,0.0456
3584.50,0.0457
3584.00,0.0458
3583.50,0.0458
3583.00,0.0457
3582.50,0.0457
3582.00,0.0457
3581.50,0.0457
3581.00,0.0457
3580.50,0.0457
3580.00,0.0456
3579.50,0.0456
3579.00,0.0455
3578.50,0.0455
3578.00,0.0455
3577.50,0.0455
3577.00,0.0455
3576.50,0.0454
3576.00,0.0454
3575.50,0.0454
3575.00,0.0454
3574.50,0.0453
3574.00,0.0453
3573.50,0.0453
3573.00,0.0452
3572.50,0.0452
3572.00,0.0452
3571.50,0.0452
3571.00,0.0452
3570.50,0.0451
3570.00,0.0451
3569.50,0.0450
3569.00,0.0450
3568.50,0.0449
3568.00,0.0448
3567.50,0.0447
3567.00,0.0445
3566.50,0.0444
3566.00,0.0444
3565.50,0.0444
3565.00,0.0445
3564.50,0.0445
3564.00,0.0446
3563.50,0.0446
3563.00,0.0446
3562.50,0.0446
3562.00,0.0446
3561.50,0.0446
3561.00,0.0446
3560.50,0.0446
3560.00,0.0446
3559.50,0.0446
3559.00,0.0445
3558.50,0.0445
3558.00,0.0446
3557.50,0.0446
3557.00,0.0446
3556.50,0.0445
3556.00,0.0445
3555.50,0.0445
3555.00,0.0445
3554.50,0.0445
3554.00,0.0444
3553.50,0.0444
3553.00,0.0444
3552.50,0.0443
3552.00,0.0443
3551.50,0.0442
3551.00,0.0443
3550.50,0.0443
3550.00,0.0444
3549.50,0.0444
3549.00,0.0444
3548.50,0.0443
3548.00,0.0443
3547.50,0.0442
3547.00,0.0442
3546.50,0.0441
3546.00,0.0440
3545.50,0.0440
3545.00,0.0440
3544.50,0.0440
3544.00,0.0440
3543.50,0.0441
3543.00,0.0441
3542.50,0.0441
3542.00,0.0442
3541.50,0.0442
3541.00,0.0442
3540.50,0.0442
3540.00,0.0442
3539.50,0.0442
3539.00,0.0442
3538.50,0.0442
3538.00,0.0442
3537.50,0.0442
3537.00,0.0441
3536.50,0.0441
3536.00,0.0441
3535.50,0.0441
3535.00,0.0441
3534.50,0.0441
3534.00,0.0442
3533.50,0.0442
3533.00,0.0442
3532.50,0.0442
3532.00,0.0442
3531.50,0.0442
3531.00,0.0442
3530.50,0.0441
3530.00,0.0441
3529.50,0.0441
3529.00,0.0441
3528.50,0.0440
3528.00,0.0440
3527.50,0.0440
3527.00,0.0440
3526.50,0.0440
3526.00,0.0440
3525.50,0.0439
3525.00,0.0439
3524.50,0.0439
3524.00,0.0439
3523.50,0.0439
3523.00,0.0438
3522.50,0.0438
3522.00,0.0439
3521.50,0.0439
3521.00,0.0439
3520.50,0.0439
3520.00,0.0439
3519.50,0.0439
3519.00,0.0439
3518.50,0.0439
3518.00,0.0439
3517.50,0.0439
3517.00,0.0438
3516.50,0.0438
3516.00,0.0438
3515.50,0.0438
3515.00,0.0438
3514.50,0.0438
3514.00,0.0437
3513.50,0.0437
3513.00,0.0437
3512.50,0.0437
3512.00,0.0437
3511.50,0.0437
3511.00,0.0437
3510.50,0.0437
3510.00,0.0436
3509.50,0.0436
3509.00,0.0436
3508.50,0.0436
3508.00,0.0436
3507.50,0.0436
3507.00,0.0436
3506.50,0.0436
3506.00,0.0436
3505.50,0.0435
3505.00,0.0435
3504.50,0.0435
3504.00,0.0434
3503.50,0.0434
3503.00,0.0433
3502.50,0.0433
3502.00,0.0433
3501.50,0.0433
3501.00,0.0433
3500.50,0.0434
3500.00,0.0434
3499.50,0.0433
3499.00,0.0433
3498.50,0.0433
3498.00,0.0433
3497.50,0.0432
3497.00,0.0432
3496.50,0.0432
3496.00,0.0432
3495.50,0.0432
3495.00,0.0432
3494.50,0.0432
3494.00,0.0432
3493.50,0.0432
3493.00,0.0432
3492.50,0.0431
3492.00,0.0431
3491.50,0.0431
3491.00,0.0431
3490.50,0.0431
3490.00,0.0431
3489.50,0.0430
3489.00,0.0430
3488.50,0.0430
3488.00,0.0430
3487.50,0.0429
3487.00,0.0429
3486.50,0.0429
3486.00,0.0429
3485.50,0.0429
3485.00,0.0429
3484.50,0.0429
3484.00,0.0429
3483.50,0.0429
3483.00,0.0428
3482.50,0.0428
3482.00,0.0428
3481.50,0.0427
3481.00,0.0427
3480.50,0.0427
3480.00,0.0426
3479.50,0.0426
3479.00,0.0427
3478.50,0.0427
3478.00,0.0427
3477.50,0.0427
3477.00,0.0427
3476.50,0.0427
3476.00,0.0426
3475.50,0.0426
3475.00,0.0426
3474.50,0.0426
3474.00,0.0425
3473.50,0.0425
3473.00,0.0425
3472.50,0.0425
3472.00,0.0425
3471.50,0.0425
3471.00,0.0424
3470.50,0.0424
3470.00,0.0424
3469.50,0.0423
3469.00,0.0423
3468.50,0.0423
3468.00,0.0423
3467.50,0.0423
3467.00,0.0423
3466.50,0.0423
3466.00,0.0423
3465.50,0.0422
3465.00,0.0422
3464.50,0.0422
3464.00,0.0422
3463.50,0.0422
3463.00,0.0422
3462.50,0.0422
3462.00,0.0421
3461.50,0.0421
3461.00,0.0421
3460.50,0.0420
3460.00,0.0420
3459.50,0.0420
3459.00,0.0420
3458.50,0.0420
3458.00,0.0420
3457.50,0.0420
3457.00,0.0420
3456.50,0.0420
3456.00,0.0420
3455.50,0.0420
3455.00,0.0419
3454.50,0.0419
3454.00,0.0419
3453.50,0.0419
3453.00,0.0419
3452.50,0.0418
3452.00,0.0418
3451.50,0.0418
3451.00,0.0418
3450.50,0.0418
3450.00,0.0418
3449.50,0.0418
3449.00,0.0417
3448.50,0.0417
3448.00,0.0416
3447.50,0.0416
3447.00,0.0416
3446.50,0.0416
3446.00,0.0415
3445.50,0.0415
3445.00,0.0416
3444.50,0.0416
3444.00,0.0416
3443.50,0.0415
3443.00,0.0415
3442.50,0.0415
3442.00,0.0415
3441.50,0.0414
3441.00,0.0414
3440.50,0.0414
3440.00,0.0414
3439.50,0.0414
3439.00,0.0414
3438.50,0.0413
3438.00,0.0413
3437.50,0.0413
3437.00,0.0412
3436.50,0.0412
3436.00,0.0412
3435.50,0.0412
3435.00,0.0412
3434.50,0.0412
3434.00,0.0412
3433.50,0.0412
3433.00,0.0412
3432.50,0.0412
3432.00,0.0411
3431.50,0.0411
3431.00,0.0411
3430.50,0.0410
3430.00,0.0410
3429.50,0.0410
3429.00,0.0410
3428.50,0.0410
3428.00,0.0410
3427.50,0.0410
3427.00,0.0410
3426.50,0.0410
3426.00,0.0410
3425.50,0.0410
3425.00,0.0410
3424.50,0.0409
3424.00,0.0409
3423.50,0.0409
3423.00,0.0409
3422.50,0.0409
3422.00,0.0409
3421.50,0.0408
3421.00,0.0408
3420.50,0.0408
3420.00,0.0408
3419.50,0.0408
3419.00,0.0408
3418.50,0.0408
3418.00,0.0408
3417.50,0.0408
3417.00,0.0408
3416.50,0.0408
3416.00,0.0408
3415.50,0.0407
3415.00,0.0407
3414.50,0.0407
3414.00,0.0407
3413.50,0.0407
3413.00,0.0406
3412.50,0.0406
3412.00,0.0406
3411.50,0.0406
3411.00,0.0406
3410.50,0.0406
3410.00,0.0406
3409.50,0.0406
3409.00,0.0406
3408.50,0.0406
3408.00,0.0406
3407.50,0.0406
3407.00,0.0405
3406.50,0.0405
3406.00,0.0405
3405.50,0.0405
3405.00,0.0405
3404.50,0.0405
3404.00,0.0405
3403.50,0.0404
3403.00,0.0404
3402.50,0.0404
3402.00,0.0403
3401.50,0.0403
3401.00,0.0403
3400.50,0.0403
3400.00,0.0403
3399.50,0.0403
3399.00,0.0403
3398.50,0.0403
3398.00,0.0403
3397.50,0.0403
3397.00,0.0403
3396.50,0.0403
3396.00,0.0403
3395.50,0.0403
3395.00,0.0403
3394.50,0.0403
3394.00,0.0403
3393.50,0.0402
3393.00,0.0402
3392.50,0.0402
3392.00,0.0401
3391.50,0.0401
3391.00,0.0402
3390.50,0.0402
3390.00,0.0402
3389.50,0.0402
3389.00,0.0402
3388.50,0.0402
3388.00,0.0402
3387.50,0.0402
3387.00,0.0402
3386.50,0.0402
3386.00,0.0402
3385.50,0.0402
3385.00,0.0402
3384.50,0.0402
3384.00,0.0402
3383.50,0.0401
3383.00,0.0401
3382.50,0.0401
3382.00,0.0401
3381.50,0.0401
3381.00,0.0401
3380.50,0.0401
3380.00,0.0401
3379.50,0.0401
3379.00,0.0401
3378.50,0.0401
3378.00,0.0401
3377.50,0.0401
3377.00,0.0400
3376.50,0.0400
3376.00,0.0400
3375.50,0.0400
3375.00,0.0400
3374.50,0.0400
3374.00,0.0400
3373.50,0.0400
3373.00,0.0400
3372.50,0.0400
3372.00,0.0400
3371.50,0.0400
3371.00,0.0400
3370.50,0.0399
3370.00,0.0399
3369.50,0.0399
3369.00,0.0399
3368.50,0.0399
3368.00,0.0399
3367.50,0.0399
3367.00,0.0399
3366.50,0.0399
3366.00,0.0399
3365.50,0.0400
3365.00,0.0400
3364.50,0.0400
3364.00,0.0400
3363.50,0.0400
3363.00,0.0400
3362.50,0.0400
3362.00,0.0400
3361.50,0.0400
3361.00,0.0400
3360.50,0.0400
3360.00,0.0400
3359.50,0.0400
3359.00,0.0400
3358.50,0.0400
3358.00,0.0400
3357.50,0.0400
3357.00,0.0400
3356.50,0.0400
3356.00,0.0400
3355.50,0.0400
3355.00,0.0400
3354.50,0.0400
3354.00,0.0400
3353.50,0.0400
3353.00,0.0400
3352.50,0.0399
3352.00,0.0399
3351.50,0.0399
3351.00,0.0399
3350.50,0.0399
3350.00,0.0399
3349.50,0.0399
3349.00,0.0399
3348.50,0.0399
3348.00,0.0399
3347.50,0.0399
3347.00,0.0399
3346.50,0.0399
3346.00,0.0399
3345.50,0.0399
3345.00,0.0399
3344.50,0.0399
3344.00,0.0399
3343.50,0.0399
3343.00,0.0399
3342.50,0.0399
3342.00,0.0399
3341.50,0.0399
3341.00,0.0399
3340.50,0.0399
3340.00,0.0398
3339.50,0.0398
3339.00,0.0398
3338.50,0.0398
3338.00,0.0398
3337.50,0.0398
3337.00,0.0398
3336.50,0.0398
3336.00,0.0398
3335.50,0.0398
3335.00,0.0398
3334.50,0.0398
3334.00,0.0398
3333.50,0.0398
3333.00,0.0398
3332.50,0.0398
3332.00,0.0398
3331.50,0.0398
3331.00,0.0398
3330.50,0.0398
3330.00,0.0398
3329.50,0.0398
3329.00,0.0398
3328.50,0.0398
3328.00,0.0398
3327.50,0.0398
3327.00,0.0397
3326.50,0.0397
3326.00,0.0397
3325.50,0.0397
3325.00,0.0397
3324.50,0.0397
3324.00,0.0397
3323.50,0.0397
3323.00,0.0397
3322.50,0.0397
3322.00,0.0397
3321.50,0.0397
3321.00,0.0397
3320.50,0.0397
3320.00,0.0397
3319.50,0.0397
3319.00,0.0397
3318.50,0.0397
3318.00,0.0397
3317.50,0.0397
3317.00,0.0397
3316.50,0.0397
3316.00,0.0397
3315.50,0.0397
3315.00,0.0396
3314.50,0.0396
3314.00,0.0396
3313.50,0.0396
3313.00,0.0396
3312.50,0.0396
3312.00,0.0396
3311.50,0.0396
3311.00,0.0396
3310.50,0.0396
3310.00,0.0395
3309.50,0.0395
3309.00,0.0395
3308.50,0.0395
3308.00,0.0395
3307.50,0.0395
3307.00,0.0395
3306.50,0.0395
3306.00,0.0395
3305.50,0.0395
3305.00,0.0395
3304.50,0.0395
3304.00,0.0395
3303.50,0.0395
3303.00,0.0396
3302.50,0.0396
3302.00,0.0396
3301.50,0.0396
3301.00,0.0396
3300.50,0.0396
3300.00,0.0396
3299.50,0.0396
3299.00,0.0396
3298.50,0.0396
3298.00,0.0395
3297.50,0.0395
3297.00,0.0395
3296.50,0.0395
3296.00,0.0395
3295.50,0.0395
3295.00,0.0395
3294.50,0.0395
3294.00,0.0395
3293.50,0.0395
3293.00,0.0395
3292.50,0.0394
3292.00,0.0394
3291.50,0.0394
3291.00,0.0395
3290.50,0.0395
3290.00,0.0395
3289.50,0.0395
3289.00,0.0395
3288.50,0.0395
3288.00,0.0395
3287.50,0.0395
3287.00,0.0395
3286.50,0.0395
3286.00,0.0395
3285.50,0.0395
3285.00,0.0395
3284.50,0.0395
3284.00,0.0395
3283.50,0.0395
3283.00,0.0395
3282.50,0.0395
3282.00,0.0395
3281.50,0.0395
3281.00,0.0395
3280.50,0.0395
3280.00,0.0395
3279.50,0.0395
3279.00,0.0395
3278.50,0.0395
3278.00,0.0395
3277.50,0.0395
3277.00,0.0395
3276.50,0.0395
3276.00,0.0395
3275.50,0.0395
3275.00,0.0395
3274.50,0.0395
3274.00,0.0395
3273.50,0.0395
3273.00,0.0395
3272.50,0.0395
3272.00,0.0395
3271.50,0.0394
3271.00,0.0394
3270.50,0.0394
3270.00,0.0394
3269.50,0.0395
3269.00,0.0395
3268.50,0.0395
3268.00,0.0395
3267.50,0.0395
3267.00,0.0395
3266.50,0.0395
3266.00,0.0395
3265.50,0.0395
3265.00,0.0395
3264.50,0.0395
3264.00,0.0395
3263.50,0.0395
3263.00,0.0396
3262.50,0.0396
3262.00,0.0396
3261.50,0.0395
3261.00,0.0395
3260.50,0.0395
3260.00,0.0395
3259.50,0.0395
3259.00,0.0396
3258.50,0.0396
3258.00,0.0395
3257.50,0.0395
3257.00,0.0395
3256.50,0.0395
3256.00,0.0395
3255.50,0.0395
3255.00,0.0395
3254.50,0.0396
3254.00,0.0396
3253.50,0.0396
3253.00,0.0396
3252.50,0.0396
3252.00,0.0396
3251.50,0.0396
3251.00,0.0396
3250.50,0.0396
3250.00,0.0396
3249.50,0.0396
3249.00,0.0396
3248.50,0.0396
3248.00,0.0396
3247.50,0.0396
3247.00,0.0396
3246.50,0.0396
3246.00,0.0396
3245.50,0.0396
3245.00,0.0396
3244.50,0.0396
3244.00,0.0397
3243.50,0.0397
3243.00,0.0397
3242.50,0.0397
3242.00,0.0397
3241.50,0.0397
3241.00,0.0397
3240.50,0.0397
3240.00,0.0397
3239.50,0.0397
3239.00,0.0397
3238.50,0.0397
3238.00,0.0397
3237.50,0.0397
3237.00,0.0397
3236.50,0.0397
3236.00,0.0397
3235.50,0.0397
3235.00,0.0397
3234.50,0.0397
3234.00,0.0397
3233.50,0.0397
3233.00,0.0397
3232.50,0.0397
3232.00,0.0397
3231.50,0.0398
3231.00,0.0398
3230.50,0.0398
3230.00,0.0398
3229.50,0.0398
3229.00,0.0398
3228.50,0.0398
3228.00,0.0399
3227.50,0.0399
3227.00,0.0399
3226.50,0.0399
3226.00,0.0399
3225.50,0.0399
3225.00,0.0399
3224.50,0.0399
3224.00,0.0399
3223.50,0.0399
3223.00,0.0399
3222.50,0.0399
3222.00,0.0399
3221.50,0.0399
3221.00,0.0399
3220.50,0.0399
3220.00,0.0399
3219.50,0.0399
3219.00,0.0400
3218.50,0.0400
3218.00,0.0400
3217.50,0.0400
3217.00,0.0400
3216.50,0.0400
3216.00,0.0400
3215.50,0.0400
3215.00,0.0400
3214.50,0.0400
3214.00,0.0400
3213.50,0.0400
3213.00,0.0401
3212.50,0.0401
3212.00,0.0401
3211.50,0.0401
3211.00,0.0401
3210.50,0.0401
3210.00,0.0401
3209.50,0.0401
3209.00,0.0401
3208.50,0.0401
3208.00,0.0401
3207.50,0.0402
3207.00,0.0402
3206.50,0.0402
3206.00,0.0402
3205.50,0.0402
3205.00,0.0402
3204.50,0.0402
3204.00,0.0402
3203.50,0.0403
3203.00,0.0403
3202.50,0.0403
3202.00,0.0403
3201.50,0.0403
3201.00,0.0403
3200.50,0.0403
3200.00,0.0403
3199.50,0.0403
3199.00,0.0403
3198.50,0.0404
3198.00,0.0404
3197.50,0.0404
3197.00,0.0404
3196.50,0.0404
3196.00,0.0404
3195.50,0.0405
3195.00,0.0405
3194.50,0.0405
3194.00,0.0405
3193.50,0.0405
3193.00,0.0405
3192.50,0.0406
3192.00,0.0406
3191.50,0.0406
3191.00,0.0406
3190.50,0.0407
3190.00,0.0407
3189.50,0.0407
3189.00,0.0407
3188.50,0.0407
3188.00,0.0407
3187.50,0.0408
3187.00,0.0408
3186.50,0.0408
3186.00,0.0408
3185.50,0.0408
3185.00,0.0408
3184.50,0.0408
3184.00,0.0408
3183.50,0.0409
3183.00,0.0409
3182.50,0.0409
3182.00,0.0409
3181.50,0.0408
3181.00,0.0408
3180.50,0.0408
3180.00,0.0408
3179.50,0.0408
3179.00,0.0408
3178.50,0.0408
3178.00,0.0408
3177.50,0.0408
3177.00,0.0408
3176.50,0.0408
3176.00,0.0408
3175.50,0.0409
3175.00,0.0409
3174.50,0.0409
3174.00,0.0409
3173.50,0.0409
3173.00,0.0409
3172.50,0.0409
3172.00,0.0409
3171.50,0.0410
3171.00,0.0410
3170.50,0.0410
3170.00,0.0410
3169.50,0.0410
3169.00,0.0410
3168.50,0.0410
3168.00,0.0411
3167.50,0.0411
3167.00,0.0411
3166.50,0.0411
3166.00,0.0411
3165.50,0.0412
3165.00,0.0412
3164.50,0.0412
3164.00,0.0412
3163.50,0.0412
3163.00,0.0413
3162.50,0.0413
3162.00,0.0413
3161.50,0.0413
3161.00,0.0413
3160.50,0.0414
3160.00,0.0414
3159.50,0.0414
3159.00,0.0415
3158.50,0.0415
3158.00,0.0415
3157.50,0.0415
3157.00,0.0416
3156.50,0.0416
3156.00,0.0416
3155.50,0.0416
3155.00,0.0417
3154.50,0.0417
3154.00,0.0417
3153.50,0.0417
3153.00,0.0417
3152.50,0.0417
3152.00,0.0418
3151.50,0.0418
3151.00,0.0419
3150.50,0.0419
3150.00,0.0420
3149.50,0.0420
3149.00,0.0420
3148.50,0.0421
3148.00,0.0421
3147.50,0.0421
3147.00,0.0422
3146.50,0.0422
3146.00,0.0423
3145.50,0.0423
3145.00,0.0423
3144.50,0.0424
3144.00,0.0424
3143.50,0.0425
3143.00,0.0425
3142.50,0.0425
3142.00,0.0426
3141.50,0.0426
3141.00,0.0427
3140.50,0.0427
3140.00,0.0427
3139.50,0.0428
3139.00,0.0428
3138.50,0.0429
3138.00,0.0430
3137.50,0.0430
3137.00,0.0431
3136.50,0.0432
3136.00,0.0432
3135.50,0.0433
3135.00,0.0434
3134.50,0.0434
3134.00,0.0435
3133.50,0.0435
3133.00,0.0436
3132.50,0.0437
3132.00,0.0437
3131.50,0.0438
3131.00,0.0438
3130.50,0.0439
3130.00,0.0439
3129.50,0.0440
3129.00,0.0441
3128.50,0.0441
3128.00,0.0442
3127.50,0.0443
3127.00,0.0444
3126.50,0.0444
3126.00,0.0445
3125.50,0.0445
3125.00,0.0446
3124.50,0.0447
3124.00,0.0447
3123.50,0.0448
3123.00,0.0448
3122.50,0.0448
3122.00,0.0449
3121.50,0.0449
3121.00,0.0449
3120.50,0.0450
3120.00,0.0450
3119.50,0.0451
3119.00,0.0451
3118.50,0.0452
3118.00,0.0452
3117.50,0.0452
3117.00,0.0453
3116.50,0.0453
3116.00,0.0454
3115.50,0.0454
3115.00,0.0455
3114.50,0.0455
3114.00,0.0456
3113.50,0.0456
3113.00,0.0457
3112.50,0.0457
3112.00,0.0457
3111.50,0.0458
3111.00,0.0458
3110.50,0.0458
3110.00,0.0458
3109.50,0.0458
3109.00,0.0458
3108.50,0.0458
3108.00,0.0459
3107.50,0.0459
3107.00,0.0459
3106.50,0.0460
3106.00,0.0460
3105.50,0.0460
3105.00,0.0460
3104.50,0.0460
3104.00,0.0460
3103.50,0.0460
3103.00,0.0460
3102.50,0.0460
3102.00,0.0460
3101.50,0.0460
3101.00,0.0460
3100.50,0.0460
3100.00,0.0460
3099.50,0.0460
3099.00,0.0461
3098.50,0.0461
3098.00,0.0461
3097.50,0.0461
3097.00,0.0461
3096.50,0.0461
3096.00,0.0461
3095.50,0.0461
3095.00,0.0461
3094.50,0.0461
3094.00,0.0461
3093.50,0.0461
3093.00,0.0461
3092.50,0.0461
3092.00,0.0461
3091.50,0.0461
3091.00,0.0461
3090.50,0.0461
3090.00,0.0461
3089.50,0.0462
3089.00,0.0462
3088.50,0.0462
3088.00,0.0462
3087.50,0.0462
3087.00,0.0462
3086.50,0.0462
3086.00,0.0463
3085.50,0.0463
3085.00,0.0463
3084.50,0.0463
3084.00,0.0463
3083.50,0.0463
3083.00,0.0464
3082.50,0.0464
3082.00,0.0464
3081.50,0.0464
3081.00,0.0465
3080.50,0.0465
3080.00,0.0465
3079.50,0.0466
3079.00,0.0466
3078.50,0.0466
3078.00,0.0467
3077.50,0.0467
3077.00,0.0468
3076.50,0.0468
3076.00,0.0469
3075.50,0.0470
3075.00,0.0470
3074.50,0.0471
3074.00,0.0471
3073.50,0.0472
3073.00,0.0472
3072.50,0.0472
3072.00,0.0473
3071.50,0.0474
3071.00,0.0474
3070.50,0.0475
3070.00,0.0475
3069.50,0.0476
3069.00,0.0477
3068.50,0.0477
3068.00,0.0478
3067.50,0.0478
3067.00,0.0479
3066.50,0.0480
3066.00,0.0481
3065.50,0.0482
3065.00,0.0484
3064.50,0.0485
3064.00,0.0486
3063.50,0.0487
3063.00,0.0488
3062.50,0.0490
3062.00,0.0491
3061.50,0.0493
3061.00,0.0495
3060.50,0.0496
3060.00,0.0498
3059.50,0.0500
3059.00,0.0501
3058.50,0.0503
3058.00,0.0505
3057.50,0.0506
3057.00,0.0508
3056.50,0.0510
3056.00,0.0511
3055.50,0.0513
3055.00,0.0514
3054.50,0.0515
3054.00,0.0516
3053.50,0.0517
3053.00,0.0518
3052.50,0.0518
3052.00,0.0517
3051.50,0.0517
3051.00,0.0516
3050.50,0.0514
3050.00,0.0513
3049.50,0.0511
3049.00,0.0510
3048.50,0.0508
3048.00,0.0506
3047.50,0.0504
3047.00,0.0502
3046.50,0.0500
3046.00,0.0498
3045.50,0.0496
3045.00,0.0495
3044.50,0.0494
3044.00,0.0493
3043.50,0.0492
3043.00,0.0491
3042.50,0.0490
3042.00,0.0489
3041.50,0.0489
3041.00,0.0488
3040.50,0.0488
3040.00,0.0488
3039.50,0.0487
3039.00,0.0487
3038.50,0.0487
3038.00,0.0487
3037.50,0.0486
3037.00,0.0486
3036.50,0.0486
3036.00,0.0486
3035.50,0.0485
3035.00,0.0485
3034.50,0.0485
3034.00,0.0485
3033.50,0.0485
3033.00,0.0485
3032.50,0.0486
3032.00,0.0486
3031.50,0.0486
3031.00,0.0486
3030.50,0.0487
3030.00,0.0487
3029.50,0.0488
3029.00,0.0488
3028.50,0.0489
3028.00,0.0489
3027.50,0.0490
3027.00,0.0491
3026.50,0.0491
3026.00,0.0492
3025.50,0.0492
3025.00,0.0493
3024.50,0.0494
3024.00,0.0495
3023.50,0.0497
3023.00,0.0498
3022.50,0.0499
3022.00,0.0500
3021.50,0.0502
3021.00,0.0503
3020.50,0.0504
3020.00,0.0506
3019.50,0.0507
3019.00,0.0509
3018.50,0.0510
3018.00,0.0512
3017.50,0.0513
3017.00,0.0514
3016.50,0.0515
3016.00,0.0517
3015.50,0.0518
3015.00,0.0519
3014.50,0.0520
3014.00,0.0521
3013.50,0.0522
3013.00,0.0523
3012.50,0.0524
3012.00,0.0525
3011.50,0.0526
3011.00,0.0528
3010.50,0.0529
3010.00,0.0531
3009.50,0.0532
3009.00,0.0534
3008.50,0.0536
3008.00,0.0538
3007.50,0.0540
3007.00,0.0541
3006.50,0.0544
3006.00,0.0546
3005.50,0.0548
3005.00,0.0550
3004.50,0.0553
3004.00,0.0556
3003.50,0.0559
3003.00,0.0562
3002.50,0.0566
3002.00,0.0569
3001.50,0.0573
3001.00,0.0577
3000.50,0.0581
3000.00,0.0585
2999.50,0.0590
2999.00,0.0594
2998.50,0.0599
2998.00,0.0604
2997.50,0.0610
2997.00,0.0616
2996.50,0.0622
2996.00,0.0629
2995.50,0.0635
2995.00,0.0642
2994.50,0.0650
2994.00,0.0658
2993.50,0.0666
2993.00,0.0675
2992.50,0.0684
2992.00,0.0694
2991.50,0.0705
2991.00,0.0716
2990.50,0.0728
2990.00,0.0740
2989.50,0.0753
2989.00,0.0767
2988.50,0.0782
2988.00,0.0798
2987.50,0.0815
2987.00,0.0833
2986.50,0.0852
2986.00,0.0872
2985.50,0.0893
2985.00,0.0916
2984.50,0.0941
2984.00,0.0967
2983.50,0.0995
2983.00,0.1025
2982.50,0.1057
2982.00,0.1091
2981.50,0.1128
2981.00,0.1167
2980.50,0.1210
2980.00,0.1255
2979.50,0.1304
2979.00,0.1357
2978.50,0.1414
2978.00,0.1475
2977.50,0.1541
2977.00,0.1612
2976.50,0.1688
2976.00,0.1769
2975.50,0.1856
2975.00,0.1949
2974.50,0.2049
2974.00,0.2155
2973.50,0.2269
2973.00,0.2389
2972.50,0.2517
2972.00,0.2651
2971.50,0.2792
2971.00,0.2940
2970.50,0.3093
2970.00,0.3251
2969.50,0.3413
2969.00,0.3578
2968.50,0.3744
2968.00,0.3909
2967.50,0.4071
2967.00,0.4227
2966.50,0.4374
2966.00,0.4511
2965.50,0.4632
2965.00,0.4735
2964.50,0.4817
2964.00,0.4877
2963.50,0.4911
2963.00,0.4917
2962.50,0.4897
2962.00,0.4851
2961.50,0.4778
2961.00,0.4681
2960.50,0.4563
2960.00,0.4427
2959.50,0.4276
2959.00,0.4113
2958.50,0.3943
2958.00,0.3769
2957.50,0.3594
2957.00,0.3420
2956.50,0.3250
2956.00,0.3085
2955.50,0.2926
2955.00,0.2775
2954.50,0.2632
2954.00,0.2497
2953.50,0.2371
2953.00,0.2254
2952.50,0.2145
2952.00,0.2044
2951.50,0.1951
2951.00,0.1865
2950.50,0.1785
2950.00,0.1711
2949.50,0.1642
2949.00,0.1577
2948.50,0.1517
2948.00,0.1462
2947.50,0.1410
2947.00,0.1362
2946.50,0.1317
2946.00,0.1275
2945.50,0.1237
2945.00,0.1200
2944.50,0.1166
2944.00,0.1135
2943.50,0.1106
2943.00,0.1079
2942.50,0.1054
2942.00,0.1031
2941.50,0.1009
2941.00,0.0988
2940.50,0.0969
2940.00,0.0950
2939.50,0.0933
2939.00,0.0917
2938.50,0.0902
2938.00,0.0888
2937.50,0.0875
2937.00,0.0862
2936.50,0.0850
2936.00,0.0839
2935.50,0.0828
2935.00,0.0818
2934.50,0.0809
2934.00,0.0801
2933.50,0.0792
2933.00,0.0785
2932.50,0.0778
2932.00,0.0771
2931.50,0.0764
2931.00,0.0758
2930.50,0.0753
2930.00,0.0747
2929.50,0.0743
2929.00,0.0739
2928.50,0.0735
2928.00,0.0732
2927.50,0.0729
2927.00,0.0726
2926.50,0.0723
2926.00,0.0721
2925.50,0.0720
2925.00,0.0718
2924.50,0.0717
2924.00,0.0717
2923.50,0.0717
2923.00,0.0717
2922.50,0.0718
2922.00,0.0719
2921.50,0.0720
2921.00,0.0722
2920.50,0.0724
2920.00,0.0727
2919.50,0.0731
2919.00,0.0734
2918.50,0.0739
2918.00,0.0744
2917.50,0.0750
2917.00,0.0757
2916.50,0.0764
2916.00,0.0772
2915.50,0.0781
2915.00,0.0791
2914.50,0.0802
2914.00,0.0813
2913.50,0.0826
2913.00,0.0839
2912.50,0.0853
2912.00,0.0868
2911.50,0.0884
2911.00,0.0900
2910.50,0.0917
2910.00,0.0934
2909.50,0.0950
2909.00,0.0967
2908.50,0.0982
2908.00,0.0997
2907.50,0.1010
2907.00,0.1022
2906.50,0.1032
2906.00,0.1039
2905.50,0.1044
2905.00,0.1047
2904.50,0.1046
2904.00,0.1044
2903.50,0.1039
2903.00,0.1032
2902.50,0.1022
2902.00,0.1011
2901.50,0.0998
2901.00,0.0984
2900.50,0.0968
2900.00,0.0952
2899.50,0.0935
2899.00,0.0918
2898.50,0.0901
2898.00,0.0884
2897.50,0.0867
2897.00,0.0850
2896.50,0.0833
2896.00,0.0818
2895.50,0.0803
2895.00,0.0788
2894.50,0.0775
2894.00,0.0762
2893.50,0.0749
2893.00,0.0737
2892.50,0.0726
2892.00,0.0715
2891.50,0.0705
2891.00,0.0696
2890.50,0.0687
2890.00,0.0679
2889.50,0.0670
2889.00,0.0663
2888.50,0.0656
2888.00,0.0649
2887.50,0.0642
2887.00,0.0636
2886.50,0.0630
2886.00,0.0625
2885.50,0.0620
2885.00,0.0615
2884.50,0.0610
2884.00,0.0605
2883.50,0.0601
2883.00,0.0597
2882.50,0.0593
2882.00,0.0589
2881.50,0.0586
2881.00,0.0582
2880.50,0.0579
2880.00,0.0576
2879.50,0.0573
2879.00,0.0570
2878.50,0.0567
2878.00,0.0564
2877.50,0.0561
2877.00,0.0559
2876.50,0.0556
2876.00,0.0553
2875.50,0.0551
2875.00,0.0548
2874.50,0.0546
2874.00,0.0543
2873.50,0.0541
2873.00,0.0539
2872.50,0.0537
2872.00,0.0535
2871.50,0.0533
2871.00,0.0531
2870.50,0.0529
2870.00,0.0527
2869.50,0.0525
2869.00,0.0523
2868.50,0.0522
2868.00,0.0520
2867.50,0.0519
2867.00,0.0517
2866.50,0.0516
2866.00,0.0514
2865.50,0.0513
2865.00,0.0512
2864.50,0.0510
2864.00,0.0509
2863.50,0.0508
2863.00,0.0507
2862.50,0.0506
2862.00,0.0505
2861.50,0.0504
2861.00,0.0503
2860.50,0.0503
2860.00,0.0502
2859.50,0.0502
2859.00,0.0501
2858.50,0.0501
2858.00,0.0501
2857.50,0.0500
2857.00,0.0500
2856.50,0.0499
2856.00,0.0499
2855.50,0.0499
2855.00,0.0498
2854.50,0.0498
2854.00,0.0498
2853.50,0.0497
2853.00,0.0497
2852.50,0.0497
2852.00,0.0497
2851.50,0.0496
2851.00,0.0496
2850.50,0.0496
2850.00,0.0496
2849.50,0.0495
2849.00,0.0495
2848.50,0.0494
2848.00,0.0493
2847.50,0.0493
2847.00,0.0492
2846.50,0.0492
2846.00,0.0491
2845.50,0.0490
2845.00,0.0490
2844.50,0.0489
2844.00,0.0489
2843.50,0.0488
2843.00,0.0488
2842.50,0.0487
2842.00,0.0487
2841.50,0.0486
2841.00,0.0486
2840.50,0.0485
2840.00,0.0484
2839.50,0.0484
2839.00,0.0483
2838.50,0.0483
2838.00,0.0482
2837.50,0.0482
2837.00,0.0481
2836.50,0.0481
2836.00,0.0480
2835.50,0.0480
2835.00,0.0479
2834.50,0.0479
2834.00,0.0478
2833.50,0.0477
2833.00,0.0477
2832.50,0.0476
2832.00,0.0475
2831.50,0.0475
2831.00,0.0474
2830.50,0.0474
2830.00,0.0474
2829.50,0.0473
2829.00,0.0473
2828.50,0.0473
2828.00,0.0472
2827.50,0.0472
2827.00,0.0471
2826.50,0.0471
2826.00,0.0471
2825.50,0.0471
2825.00,0.0471
2824.50,0.0471
2824.00,0.0471
2823.50,0.0471
2823.00,0.0471
2822.50,0.0471
2822.00,0.0471
2821.50,0.0471
2821.00,0.0471
2820.50,0.0472
2820.00,0.0472
2819.50,0.0472
2819.00,0.0473
2818.50,0.0473
2818.00,0.0473
2817.50,0.0473
2817.00,0.0474
2816.50,0.0474
2816.00,0.0474
2815.50,0.0474
2815.00,0.0474
2814.50,0.0475
2814.00,0.0475
2813.50,0.0475
2813.00,0.0475
2812.50,0.0475
2812.00,0.0475
2811.50,0.0475
2811.00,0.0475
2810.50,0.0475
2810.00,0.0475
2809.50,0.0475
2809.00,0.0475
2808.50,0.0475
2808.00,0.0475
2807.50,0.0474
2807.00,0.0474
2806.50,0.0474
2806.00,0.0474
2805.50,0.0474
2805.00,0.0473
2804.50,0.0473
2804.00,0.0473
2803.50,0.0473
2803.00,0.0472
2802.50,0.0472
2802.00,0.0472
2801.50,0.0472
2801.00,0.0471
2800.50,0.0471
2800.00,0.0471
2799.50,0.0470
2799.00,0.0470
2798.50,0.0470
2798.00,0.0470
2797.50,0.0469
2797.00,0.0469
2796.50,0.0468
2796.00,0.0468
2795.50,0.0467
2795.00,0.0467
2794.50,0.0466
2794.00,0.0465
2793.50,0.0464
2793.00,0.0463
2792.50,0.0462
2792.00,0.0461
2791.50,0.0460
2791.00,0.0459
2790.50,0.0457
2790.00,0.0456
2789.50,0.0454
2789.00,0.0452
2788.50,0.0451
2788.00,0.0449
2787.50,0.0448
2787.00,0.0446
2786.50,0.0444
2786.00,0.0442
2785.50,0.0440
2785.00,0.0438
2784.50,0.0436
2784.00,0.0434
2783.50,0.0433
2783.00,0.0431
2782.50,0.0429
2782.00,0.0427
2781.50,0.0425
2781.00,0.0424
2780.50,0.0422
2780.00,0.0421
2779.50,0.0419
2779.00,0.0418
2778.50,0.0416
2778.00,0.0415
2777.50,0.0413
2777.00,0.0412
2776.50,0.0410
2776.00,0.0409
2775.50,0.0408
2775.00,0.0407
2774.50,0.0406
2774.00,0.0405
2773.50,0.0404
2773.00,0.0403
2772.50,0.0402
2772.00,0.0401
2771.50,0.0400
2771.00,0.0399
2770.50,0.0399
2770.00,0.0398
2769.50,0.0397
2769.00,0.0396
2768.50,0.0395
2768.00,0.0395
2767.50,0.0394
2767.00,0.0393
2766.50,0.0393
2766.00,0.0392
2765.50,0.0392
2765.00,0.0391
2764.50,0.0391
2764.00,0.0390
2763.50,0.0390
2763.00,0.0389
2762.50,0.0389
2762.00,0.0388
2761.50,0.0388
2761.00,0.0387
2760.50,0.0387
2760.00,0.0386
2759.50,0.0386
2759.00,0.0386
2758.50,0.0385
2758.00,0.0385
2757.50,0.0384
2757.00,0.0384
2756.50,0.0384
2756.00,0.0383
2755.50,0.0383
2755.00,0.0383
2754.50,0.0383
2754.00,0.0382
2753.50,0.0382
2753.00,0.0382
2752.50,0.0381
2752.00,0.0381
2751.50,0.0381
2751.00,0.0380
2750.50,0.0380
2750.00,0.0380
2749.50,0.0380
2749.00,0.0379
2748.50,0.0379
2748.00,0.0379
2747.50,0.0378
2747.00,0.0378
2746.50,0.0378
2746.00,0.0378
2745.50,0.0378
2745.00,0.0377
2744.50,0.0377
2744.00,0.0377
2743.50,0.0377
2743.00,0.0377
2742.50,0.0376
2742.00,0.0376
2741.50,0.0376
2741.00,0.0376
2740.50,0.0375
2740.00,0.0375
2739.50,0.0375
2739.00,0.0375
2738.50,0.0375
2738.00,0.0375
2737.50,0.0374
2737.00,0.0374
2736.50,0.0374
2736.00,0.0374
2735.50,0.0374
2735.00,0.0374
2734.50,0.0374
2734.00,0.0374
2733.50,0.0374
2733.00,0.0374
2732.50,0.0373
2732.00,0.0373
2731.50,0.0373
2731.00,0.0373
2730.50,0.0373
2730.00,0.0373
2729.50,0.0373
2729.00,0.0373
2728.50,0.0372
2728.00,0.0372
2727.50,0.0372
2727.00,0.0372
2726.50,0.0372
2726.00,0.0372
2725.50,0.0372
2725.00,0.0372
2724.50,0.0372
2724.00,0.0372
2723.50,0.0372
2723.00,0.0372
2722.50,0.0372
2722.00,0.0372
2721.50,0.0372
2721.00,0.0372
2720.50,0.0372
2720.00,0.0372
2719.50,0.0372
2719.00,0.0372
2718.50,0.0371
2718.00,0.0371
2717.50,0.0371
2717.00,0.0371
2716.50,0.0371
2716.00,0.0371
2715.50,0.0371
2715.00,0.0371
2714.50,0.0371
2714.00,0.0371
2713.50,0.0371
2713.00,0.0371
2712.50,0.0371
2712.00,0.0371
2711.50,0.0371
2711.00,0.0371
2710.50,0.0371
2710.00,0.0371
2709.50,0.0371
2709.00,0.0371
2708.50,0.0371
2708.00,0.0371
2707.50,0.0371
2707.00,0.0371
2706.50,0.0371
2706.00,0.0371
2705.50,0.0371
2705.00,0.0371
2704.50,0.0371
2704.00,0.0371
2703.50,0.0371
2703.00,0.0371
2702.50,0.0371
2702.00,0.0371
2701.50,0.0370
2701.00,0.0370
2700.50,0.0370
2700.00,0.0370
2699.50,0.0370
2699.00,0.0370
2698.50,0.0370
2698.00,0.0370
2697.50,0.0370
2697.00,0.0370
2696.50,0.0370
2696.00,0.0370
2695.50,0.0370
2695.00,0.0370
2694.50,0.0369
2694.00,0.0369
2693.50,0.0369
2693.00,0.0369
2692.50,0.0369
2692.00,0.0369
2691.50,0.0369
2691.00,0.0369
2690.50,0.0369
2690.00,0.0369
2689.50,0.0369
2689.00,0.0369
2688.50,0.0369
2688.00,0.0369
2687.50,0.0369
2687.00,0.0369
2686.50,0.0369
2686.00,0.0370
2685.50,0.0370
2685.00,0.0370
2684.50,0.0370
2684.00,0.0370
2683.50,0.0370
2683.00,0.0370
2682.50,0.0370
2682.00,0.0370
2681.50,0.0370
2681.00,0.0370
2680.50,0.0371
2680.00,0.0371
2679.50,0.0371
2679.00,0.0372
2678.50,0.0372
2678.00,0.0372
2677.50,0.0373
2677.00,0.0373
2676.50,0.0373
2676.00,0.0374
2675.50,0.0374
2675.00,0.0374
2674.50,0.0375
2674.00,0.0375
2673.50,0.0375
2673.00,0.0376
2672.50,0.0376
2672.00,0.0377
2671.50,0.0377
2671.00,0.0378
2670.50,0.0378
2670.00,0.0378
2669.50,0.0379
2669.00,0.0379
2668.50,0.0379
2668.00,0.0379
2667.50,0.0380
2667.00,0.0380
2666.50,0.0380
2666.00,0.0380
2665.50,0.0381
2665.00,0.0381
2664.50,0.0381
2664.00,0.0381
2663.50,0.0381
2663.00,0.0381
2662.50,0.0381
2662.00,0.0381
2661.50,0.0381
2661.00,0.0381
2660.50,0.0381
2660.00,0.0381
2659.50,0.0380
2659.00,0.0380
2658.50,0.0380
2658.00,0.0380
2657.50,0.0379
2657.00,0.0379
2656.50,0.0379
2656.00,0.0378
2655.50,0.0378
2655.00,0.0378
2654.50,0.0377
2654.00,0.0377
2653.50,0.0376
2653.00,0.0376
2652.50,0.0375
2652.00,0.0375
2651.50,0.0375
2651.00,0.0374
2650.50,0.0374
2650.00,0.0373
2649.50,0.0373
2649.00,0.0372
2648.50,0.0372
2648.00,0.0371
2647.50,0.0371
2647.00,0.0370
2646.50,0.0370
2646.00,0.0369
2645.50,0.0369
2645.00,0.0368
2644.50,0.0368
2644.00,0.0368
2643.50,0.0367
2643.00,0.0367
2642.50,0.0367
2642.00,0.0366
2641.50,0.0366
2641.00,0.0365
2640.50,0.0365
2640.00,0.0365
2639.50,0.0364
2639.00,0.0364
2638.50,0.0364
2638.00,0.0364
2637.50,0.0363
2637.00,0.0363
2636.50,0.0363
2636.00,0.0363
2635.50,0.0362
2635.00,0.0362
2634.50,0.0362
2634.00,0.0362
2633.50,0.0361
2633.00,0.0361
2632.50,0.0361
2632.00,0.0361
2631.50,0.0361
2631.00,0.0360
2630.50,0.0360
2630.00,0.0360
2629.50,0.0360
2629.00,0.0360
2628.50,0.0359
2628.00,0.0359
2627.50,0.0359
2627.00,0.0359
2626.50,0.0359
2626.00,0.0359
2625.50,0.0359
2625.00,0.0358
2624.50,0.0358
2624.00,0.0358
2623.50,0.0358
2623.00,0.0358
2622.50,0.0358
2622.00,0.0358
2621.50,0.0358
2621.00,0.0358
2620.50,0.0358
2620.00,0.0358
2619.50,0.0357
2619.00,0.0357
2618.50,0.0357
2618.00,0.0357
2617.50,0.0357
2617.00,0.0357
2616.50,0.0357
2616.00,0.0357
2615.50,0.0357
2615.00,0.0357
2614.50,0.0357
2614.00,0.0357
2613.50,0.0357
2613.00,0.0357
2612.50,0.0357
2612.00,0.0356
2611.50,0.0356
2611.00,0.0356
2610.50,0.0356
2610.00,0.0356
2609.50,0.0356
2609.00,0.0356
2608.50,0.0356
2608.00,0.0356
2607.50,0.0356
2607.00,0.0355
2606.50,0.0355
2606.00,0.0355
2605.50,0.0355
2605.00,0.0355
2604.50,0.0355
2604.00,0.0355
2603.50,0.0355
2603.00,0.0355
2602.50,0.0355
2602.00,0.0355
2601.50,0.0355
2601.00,0.0355
2600.50,0.0355
2600.00,0.0355
2599.50,0.0355
2599.00,0.0354
2598.50,0.0354
2598.00,0.0354
2597.50,0.0354
2597.00,0.0354
2596.50,0.0354
2596.00,0.0354
2595.50,0.0354
2595.00,0.0354
2594.50,0.0354
2594.00,0.0354
2593.50,0.0354
2593.00,0.0354
2592.50,0.0354
2592.00,0.0354
2591.50,0.0354
2591.00,0.0354
2590.50,0.0354
2590.00,0.0354
2589.50,0.0354
2589.00,0.0354
2588.50,0.0354
2588.00,0.0354
2587.50,0.0354
2587.00,0.0354
2586.50,0.0354
2586.00,0.0354
2585.50,0.0354
2585.00,0.0354
2584.50,0.0354
2584.00,0.0354
2583.50,0.0354
2583.00,0.0354
2582.50,0.0354
2582.00,0.0353
2581.50,0.0353
2581.00,0.0353
2580.50,0.0353
2580.00,0.0353
2579.50,0.0353
2579.00,0.0353
2578.50,0.0353
2578.00,0.0353
2577.50,0.0353
2577.00,0.0353
2576.50,0.0353
2576.00,0.0353
2575.50,0.0353
2575.00,0.0353
2574.50,0.0353
2574.00,0.0353
2573.50,0.0353
2573.00,0.0353
2572.50,0.0352
2572.00,0.0352
2571.50,0.0352
2571.00,0.0352
2570.50,0.0352
2570.00,0.0352
2569.50,0.0352
2569.00,0.0352
2568.50,0.0352
2568.00,0.0352
2567.50,0.0352
2567.00,0.0352
2566.50,0.0352
2566.00,0.0352
2565.50,0.0352
2565.00,0.0352
2564.50,0.0352
2564.00,0.0352
2563.50,0.0352
2563.00,0.0352
2562.50,0.0352
2562.00,0.0352
2561.50,0.0352
2561.00,0.0352
2560.50,0.0352
2560.00,0.0352
2559.50,0.0352
2559.00,0.0352
2558.50,0.0352
2558.00,0.0352
2557.50,0.0352
2557.00,0.0352
2556.50,0.0352
2556.00,0.0352
2555.50,0.0352
2555.00,0.0352
2554.50,0.0352
2554.00,0.0352
2553.50,0.0352
2553.00,0.0351
2552.50,0.0351
2552.00,0.0351
2551.50,0.0351
2551.00,0.0351
2550.50,0.0351
2550.00,0.0351
2549.50,0.0351
2549.00,0.0351
2548.50,0.0351
2548.00,0.0351
2547.50,0.0351
2547.00,0.0351
2546.50,0.0351
2546.00,0.0351
2545.50,0.0351
2545.00,0.0351
2544.50,0.0351
2544.00,0.0350
2543.50,0.0350
2543.00,0.0350
2542.50,0.0350
2542.00,0.0350
2541.50,0.0350
2541.00,0.0350
2540.50,0.0350
2540.00,0.0350
2539.50,0.0350
2539.00,0.0350
2538.50,0.0350
2538.00,0.0350
2537.50,0.0350
2537.00,0.0350
2536.50,0.0350
2536.00,0.0349
2535.50,0.0349
2535.00,0.0349
2534.50,0.0349
2534.00,0.0349
2533.50,0.0349
2533.00,0.0349
2532.50,0.0349
2532.00,0.0349
2531.50,0.0349
2531.00,0.0349
2530.50,0.0349
2530.00,0.0349
2529.50,0.0349
2529.00,0.0349
2528.50,0.0349
2528.00,0.0350
2527.50,0.0350
2527.00,0.0350
2526.50,0.0350
2526.00,0.0350
2525.50,0.0350
2525.00,0.0350
2524.50,0.0350
2524.00,0.0350
2523.50,0.0350
2523.00,0.0350
2522.50,0.0350
2522.00,0.0350
2521.50,0.0350
2521.00,0.0351
2520.50,0.0351
2520.00,0.0351
2519.50,0.0351
2519.00,0.0351
2518.50,0.0351
2518.00,0.0351
2517.50,0.0351
2517.00,0.0351
2516.50,0.0352
2516.00,0.0352
2515.50,0.0352
2515.00,0.0352
2514.50,0.0352
2514.00,0.0352
2513.50,0.0353
2513.00,0.0353
2512.50,0.0354
2512.00,0.0354
2511.50,0.0354
2511.00,0.0355
2510.50,0.0355
2510.00,0.0356
2509.50,0.0356
2509.00,0.0357
2508.50,0.0358
2508.00,0.0358
2507.50,0.0359
2507.00,0.0360
2506.50,0.0361
2506.00,0.0362
2505.50,0.0364
2505.00,0.0365
2504.50,0.0366
2504.00,0.0367
2503.50,0.0368
2503.00,0.0370
2502.50,0.0371
2502.00,0.0372
2501.50,0.0373
2501.00,0.0374
2500.50,0.0374
2500.00,0.0375
2499.50,0.0375
2499.00,0.0375
2498.50,0.0375
2498.00,0.0375
2497.50,0.0374
2497.00,0.0374
2496.50,0.0373
2496.00,0.0373
2495.50,0.0372
2495.00,0.0371
2494.50,0.0370
2494.00,0.0370
2493.50,0.0369
2493.00,0.0368
2492.50,0.0367
2492.00,0.0366
2491.50,0.0366
2491.00,0.0365
2490.50,0.0364
2490.00,0.0363
2489.50,0.0363
2489.00,0.0362
2488.50,0.0361
2488.00,0.0360
2487.50,0.0360
2487.00,0.0359
2486.50,0.0359
2486.00,0.0358
2485.50,0.0358
2485.00,0.0358
2484.50,0.0357
2484.00,0.0357
2483.50,0.0356
2483.00,0.0356
2482.50,0.0356
2482.00,0.0355
2481.50,0.0355
2481.00,0.0355
2480.50,0.0354
2480.00,0.0354
2479.50,0.0354
2479.00,0.0354
2478.50,0.0354
2478.00,0.0354
2477.50,0.0353
2477.00,0.0353
2476.50,0.0353
2476.00,0.0353
2475.50,0.0353
2475.00,0.0353
2474.50,0.0353
2474.00,0.0352
2473.50,0.0352
2473.00,0.0352
2472.50,0.0352
2472.00,0.0352
2471.50,0.0352
2471.00,0.0352
2470.50,0.0352
2470.00,0.0352
2469.50,0.0352
2469.00,0.0352
2468.50,0.0352
2468.00,0.0352
2467.50,0.0351
2467.00,0.0351
2466.50,0.0351
2466.00,0.0351
2465.50,0.0351
2465.00,0.0351
2464.50,0.0351
2464.00,0.0351
2463.50,0.0351
2463.00,0.0351
2462.50,0.0351
2462.00,0.0350
2461.50,0.0350
2461.00,0.0350
2460.50,0.0350
2460.00,0.0350
2459.50,0.0350
2459.00,0.0350
2458.50,0.0350
2458.00,0.0350
2457.50,0.0350
2457.00,0.0350
2456.50,0.0350
2456.00,0.0350
2455.50,0.0350
2455.00,0.0349
2454.50,0.0349
2454.00,0.0349
2453.50,0.0349
2453.00,0.0349
2452.50,0.0349
2452.00,0.0349
2451.50,0.0349
2451.00,0.0349
2450.50,0.0349
2450.00,0.0349
2449.50,0.0349
2449.00,0.0349
2448.50,0.0349
2448.00,0.0349
2447.50,0.0349
2447.00,0.0349
2446.50,0.0349
2446.00,0.0349
2445.50,0.0349
2445.00,0.0349
2444.50,0.0349
2444.00,0.0349
2443.50,0.0349
2443.00,0.0349
2442.50,0.0349
2442.00,0.0349
2441.50,0.0349
2441.00,0.0349
2440.50,0.0349
2440.00,0.0349
2439.50,0.0349
2439.00,0.0349
2438.50,0.0349
2438.00,0.0349
2437.50,0.0349
2437.00,0.0349
2436.50,0.0349
2436.00,0.0349
2435.50,0.0349
2435.00,0.0348
2434.50,0.0348
2434.00,0.0348
2433.50,0.0348
2433.00,0.0348
2432.50,0.0348
2432.00,0.0348
2431.50,0.0348
2431.00,0.0348
2430.50,0.0348
2430.00,0.0348
2429.50,0.0348
2429.00,0.0348
2428.50,0.0348
2428.00,0.0348
2427.50,0.0348
2427.00,0.0348
2426.50,0.0348
2426.00,0.0348
2425.50,0.0348
2425.00,0.0348
2424.50,0.0348
2424.00,0.0348
2423.50,0.0347
2423.00,0.0347
2422.50,0.0347
2422.00,0.0347
2421.50,0.0347
2421.00,0.0347
2420.50,0.0347
2420.00,0.0347
2419.50,0.0347
2419.00,0.0347
2418.50,0.0347
2418.00,0.0347
2417.50,0.0347
2417.00,0.0347
2416.50,0.0347
2416.00,0.0348
2415.50,0.0348
2415.00,0.0348
2414.50,0.0348
2414.00,0.0348
2413.50,0.0348
2413.00,0.0348
2412.50,0.0348
2412.00,0.0348
2411.50,0.0348
2411.00,0.0348
2410.50,0.0347
2410.00,0.0347
2409.50,0.0347
2409.00,0.0347
2408.50,0.0347
2408.00,0.0347
2407.50,0.0347
2407.00,0.0347
2406.50,0.0347
2406.00,0.0347
2405.50,0.0347
2405.00,0.0347
2404.50,0.0347
2404.00,0.0347
2403.50,0.0347
2403.00,0.0347
2402.50,0.0347
2402.00,0.0347
2401.50,0.0347
2401.00,0.0347
2400.50,0.0347
2400.00,0.0347
2399.50,0.0347
2399.00,0.0347
2398.50,0.0347
2398.00,0.0347
2397.50,0.0347
2397.00,0.0346
2396.50,0.0346
2396.00,0.0346
2395.50,0.0346
2395.00,0.0346
2394.50,0.0346
2394.00,0.0346
2393.50,0.0346
2393.00,0.0346
2392.50,0.0346
2392.00,0.0346
2391.50,0.0346
2391.00,0.0346
2390.50,0.0346
2390.00,0.0346
2389.50,0.0346
2389.00,0.0346
2388.50,0.0346
2388.00,0.0346
2387.50,0.0346
2387.00,0.0346
2386.50,0.0346
2386.00,0.0346
2385.50,0.0346
2385.00,0.0346
2384.50,0.0345
2384.00,0.0345
2383.50,0.0345
2383.00,0.0345
2382.50,0.0345
2382.00,0.0345
2381.50,0.0345
2381.00,0.0345
2380.50,0.0346
2380.00,0.0346
2379.50,0.0347
2379.00,0.0347
2378.50,0.0348
2378.00,0.0349
2377.50,0.0350
2377.00,0.0351
2376.50,0.0351
2376.00,0.0352
2375.50,0.0352
2375.00,0.0352
2374.50,0.0351
2374.00,0.0351
2373.50,0.0350
2373.00,0.0350
2372.50,0.0349
2372.00,0.0349
2371.50,0.0348
2371.00,0.0348
2370.50,0.0348
2370.00,0.0348
2369.50,0.0348
2369.00,0.0348
2368.50,0.0348
2368.00,0.0348
2367.50,0.0349
2367.00,0.0349
2366.50,0.0349
2366.00,0.0349
2365.50,0.0348
2365.00,0.0349
2364.50,0.0349
2364.00,0.0349
2363.50,0.0349
2363.00,0.0349
2362.50,0.0349
2362.00,0.0349
2361.50,0.0349
2361.00,0.0348
2360.50,0.0348
2360.00,0.0348
2359.50,0.0349
2359.00,0.0349
2358.50,0.0349
2358.00,0.0348
2357.50,0.0347
2357.00,0.0347
2356.50,0.0347
2356.00,0.0348
2355.50,0.0349
2355.00,0.0350
2354.50,0.0350
2354.00,0.0350
2353.50,0.0349
2353.00,0.0349
2352.50,0.0350
2352.00,0.0351
2351.50,0.0350
2351.00,0.0349
2350.50,0.0348
2350.00,0.0347
2349.50,0.0347
2349.00,0.0347
2348.50,0.0348
2348.00,0.0349
2347.50,0.0349
2347.00,0.0349
2346.50,0.0350
2346.00,0.0349
2345.50,0.0348
2345.00,0.0348
2344.50,0.0347
2344.00,0.0346
2343.50,0.0345
2343.00,0.0345
2342.50,0.0346
2342.00,0.0346
2341.50,0.0346
2341.00,0.0347
2340.50,0.0348
2340.00,0.0349
2339.50,0.0349
2339.00,0.0350
2338.50,0.0350
2338.00,0.0350
2337.50,0.0350
2337.00,0.0350
2336.50,0.0350
2336.00,0.0351
2335.50,0.0351
2335.00,0.0351
2334.50,0.0351
2334.00,0.0351
2333.50,0.0350
2333.00,0.0350
2332.50,0.0351
2332.00,0.0350
2331.50,0.0350
2331.00,0.0350
2330.50,0.0350
2330.00,0.0350
2329.50,0.0349
2329.00,0.0349
2328.50,0.0349
2328.00,0.0348
2327.50,0.0348
2327.00,0.0348
2326.50,0.0349
2326.00,0.0349
2325.50,0.0348
2325.00,0.0348
2324.50,0.0348
2324.00,0.0348
2323.50,0.0348
2323.00,0.0348
2322.50,0.0348
2322.00,0.0348
2321.50,0.0348
2321.00,0.0347
2320.50,0.0347
2320.00,0.0348
2319.50,0.0348
2319.00,0.0348
2318.50,0.0348
2318.00,0.0348
2317.50,0.0348
2317.00,0.0347
2316.50,0.0347
2316.00,0.0348
2315.50,0.0348
2315.00,0.0347
2314.50,0.0347
2314.00,0.0348
2313.50,0.0348
2313.00,0.0347
2312.50,0.0347
2312.00,0.0347
2311.50,0.0347
2311.00,0.0346
2310.50,0.0346
2310.00,0.0346
2309.50,0.0346
2309.00,0.0346
2308.50,0.0345
2308.00,0.0346
2307.50,0.0346
2307.00,0.0346
2306.50,0.0346
2306.00,0.0346
2305.50,0.0347
2305.00,0.0347
2304.50,0.0346
2304.00,0.0346
2303.50,0.0347
2303.00,0.0347
2302.50,0.0346
2302.00,0.0346
2301.50,0.0346
2301.00,0.0347
2300.50,0.0346
2300.00,0.0346
2299.50,0.0347
2299.00,0.0347
2298.50,0.0347
2298.00,0.0347
2297.50,0.0347
2297.00,0.0347
2296.50,0.0347
2296.00,0.0347
2295.50,0.0347
2295.00,0.0348
2294.50,0.0348
2294.00,0.0347
2293.50,0.0347
2293.00,0.0348
2292.50,0.0348
2292.00,0.0348
2291.50,0.0348
2291.00,0.0348
2290.50,0.0348
2290.00,0.0348
2289.50,0.0348
2289.00,0.0349
2288.50,0.0349
2288.00,0.0349
2287.50,0.0349
2287.00,0.0349
2286.50,0.0349
2286.00,0.0349
2285.50,0.0349
2285.00,0.0350
2284.50,0.0350
2284.00,0.0350
2283.50,0.0350
2283.00,0.0350
2282.50,0.0350
2282.00,0.0350
2281.50,0.0350
2281.00,0.0350
2280.50,0.0350
2280.00,0.0350
2279.50,0.0350
2279.00,0.0350
2278.50,0.0351
2278.00,0.0351
2277.50,0.0351
2277.00,0.0351
2276.50,0.0351
2276.00,0.0351
2275.50,0.0351
2275.00,0.0351
2274.50,0.0351
2274.00,0.0351
2273.50,0.0351
2273.00,0.0351
2272.50,0.0351
2272.00,0.0351
2271.50,0.0351
2271.00,0.0352
2270.50,0.0352
2270.00,0.0352
2269.50,0.0352
2269.00,0.0352
2268.50,0.0352
2268.00,0.0352
2267.50,0.0352
2267.00,0.0352
2266.50,0.0352
2266.00,0.0352
2265.50,0.0352
2265.00,0.0352
2264.50,0.0352
2264.00,0.0352
2263.50,0.0352
2263.00,0.0352
2262.50,0.0352
2262.00,0.0352
2261.50,0.0352
2261.00,0.0352
2260.50,0.0352
2260.00,0.0351
2259.50,0.0352
2259.00,0.0352
2258.50,0.0352
2258.00,0.0352
2257.50,0.0352
2257.00,0.0352
2256.50,0.0352
2256.00,0.0351
2255.50,0.0352
2255.00,0.0352
2254.50,0.0352
2254.00,0.0352
2253.50,0.0352
2253.00,0.0352
2252.50,0.0352
2252.00,0.0352
2251.50,0.0352
2251.00,0.0352
2250.50,0.0352
2250.00,0.0352
2249.50,0.0352
2249.00,0.0352
2248.50,0.0353
2248.00,0.0353
2247.50,0.0353
2247.00,0.0353
2246.50,0.0353
2246.00,0.0353
2245.50,0.0353
2245.00,0.0354
2244.50,0.0354
2244.00,0.0354
2243.50,0.0354
2243.00,0.0354
2242.50,0.0354
2242.00,0.0354
2241.50,0.0354
2241.00,0.0355
2240.50,0.0355
2240.00,0.0355
2239.50,0.0355
2239.00,0.0355
2238.50,0.0355
2238.00,0.0355
2237.50,0.0355
2237.00,0.0355
2236.50,0.0356
2236.00,0.0356
2235.50,0.0356
2235.00,0.0356
2234.50,0.0356
2234.00,0.0356
2233.50,0.0357
2233.00,0.0357
2232.50,0.0357
2232.00,0.0357
2231.50,0.0357
2231.00,0.0357
2230.50,0.0358
2230.00,0.0358
2229.50,0.0358
2229.00,0.0358
2228.50,0.0358
2228.00,0.0359
2227.50,0.0359
2227.00,0.0359
2226.50,0.0359
2226.00,0.0360
2225.50,0.0360
2225.00,0.0360
2224.50,0.0361
2224.00,0.0361
2223.50,0.0361
2223.00,0.0361
2222.50,0.0362
2222.00,0.0362
2221.50,0.0363
2221.00,0.0363
2220.50,0.0363
2220.00,0.0364
2219.50,0.0364
2219.00,0.0365
2218.50,0.0365
2218.00,0.0365
2217.50,0.0366
2217.00,0.0366
2216.50,0.0367
2216.00,0.0367
2215.50,0.0368
2215.00,0.0368
2214.50,0.0369
2214.00,0.0369
2213.50,0.0370
2213.00,0.0370
2212.50,0.0371
2212.00,0.0371
2211.50,0.0372
2211.00,0.0372
2210.50,0.0373
2210.00,0.0374
2209.50,0.0374
2209.00,0.0375
2208.50,0.0376
2208.00,0.0376
2207.50,0.0377
2207.00,0.0378
2206.50,0.0379
2206.00,0.0379
2205.50,0.0380
2205.00,0.0381
2204.50,0.0382
2204.00,0.0383
2203.50,0.0384
2203.00,0.0385
2202.50,0.0385
2202.00,0.0386
2201.50,0.0387
2201.00,0.0389
2200.50,0.0390
2200.00,0.0391
2199.50,0.0392
2199.00,0.0393
2198.50,0.0395
2198.00,0.0396
2197.50,0.0398
2197.00,0.0399
2196.50,0.0401
2196.00,0.0402
2195.50,0.0404
2195.00,0.0406
2194.50,0.0407
2194.00,0.0409
2193.50,0.0411
2193.00,0.0413
2192.50,0.0415
2192.00,0.0417
2191.50,0.0419
2191.00,0.0422
2190.50,0.0424
2190.00,0.0427
2189.50,0.0429
2189.00,0.0432
2188.50,0.0434
2188.00,0.0437
2187.50,0.0440
2187.00,0.0443
2186.50,0.0446
2186.00,0.0449
2185.50,0.0452
2185.00,0.0456
2184.50,0.0459
2184.00,0.0462
2183.50,0.0466
2183.00,0.0470
2182.50,0.0473
2182.00,0.0477
2181.50,0.0481
2181.00,0.0485
2180.50,0.0489
2180.00,0.0493
2179.50,0.0497
2179.00,0.0501
2178.50,0.0505
2178.00,0.0510
2177.50,0.0514
2177.00,0.0518
2176.50,0.0522
2176.00,0.0527
2175.50,0.0531
2175.00,0.0535
2174.50,0.0539
2174.00,0.0543
2173.50,0.0547
2173.00,0.0551
2172.50,0.0555
2172.00,0.0559
2171.50,0.0563
2171.00,0.0566
2170.50,0.0570
2170.00,0.0573
2169.50,0.0576
2169.00,0.0579
2168.50,0.0582
2168.00,0.0585
2167.50,0.0587
2167.00,0.0590
2166.50,0.0592
2166.00,0.0594
2165.50,0.0595
2165.00,0.0597
2164.50,0.0598
2164.00,0.0599
2163.50,0.0600
2163.00,0.0600
2162.50,0.0600
2162.00,0.0600
2161.50,0.0600
2161.00,0.0600
2160.50,0.0599
2160.00,0.0598
2159.50,0.0597
2159.00,0.0595
2158.50,0.0594
2158.00,0.0592
2157.50,0.0590
2157.00,0.0587
2156.50,0.0585
2156.00,0.0582
2155.50,0.0579
2155.00,0.0576
2154.50,0.0573
2154.00,0.0569
2153.50,0.0566
2153.00,0.0562
2152.50,0.0558
2152.00,0.0555
2151.50,0.0551
2151.00,0.0547
2150.50,0.0542
2150.00,0.0538
2149.50,0.0534
2149.00,0.0530
2148.50,0.0526
2148.00,0.0521
2147.50,0.0517
2147.00,0.0513
2146.50,0.0509
2146.00,0.0504
2145.50,0.0500
2145.00,0.0496
2144.50,0.0492
2144.00,0.0488
2143.50,0.0484
2143.00,0.0480
2142.50,0.0476
2142.00,0.0473
2141.50,0.0469
2141.00,0.0465
2140.50,0.0462
2140.00,0.0458
2139.50,0.0455
2139.00,0.0452
2138.50,0.0449
2138.00,0.0446
2137.50,0.0443
2137.00,0.0440
2136.50,0.0437
2136.00,0.0435
2135.50,0.0432
2135.00,0.0430
2134.50,0.0427
2134.00,0.0425
2133.50,0.0423
2133.00,0.0421
2132.50,0.0419
2132.00,0.0417
2131.50,0.0415
2131.00,0.0413
2130.50,0.0411
2130.00,0.0410
2129.50,0.0408
2129.00,0.0407
2128.50,0.0405
2128.00,0.0404
2127.50,0.0402
2127.00,0.0401
2126.50,0.0400
2126.00,0.0399
2125.50,0.0398
2125.00,0.0397
2124.50,0.0396
2124.00,0.0395
2123.50,0.0394
2123.00,0.0393
2122.50,0.0392
2122.00,0.0391
2121.50,0.0390
2121.00,0.0389
2120.50,0.0389
2120.00,0.0388
2119.50,0.0387
2119.00,0.0386
2118.50,0.0386
2118.00,0.0385
2117.50,0.0384
2117.00,0.0384
2116.50,0.0383
2116.00,0.0383
2115.50,0.0382
2115.00,0.0382
2114.50,0.0381
2114.00,0.0381
2113.50,0.0380
2113.00,0.0380
2112.50,0.0379
2112.00,0.0379
2111.50,0.0379
2111.00,0.0378
2110.50,0.0378
2110.00,0.0378
2109.50,0.0377
2109.00,0.0377
2108.50,0.0377
2108.00,0.0377
2107.50,0.0376
2107.00,0.0376
2106.50,0.0376
2106.00,0.0376
2105.50,0.0376
2105.00,0.0376
2104.50,0.0375
2104.00,0.0375
2103.50,0.0375
2103.00,0.0375
2102.50,0.0375
2102.00,0.0374
2101.50,0.0374
2101.00,0.0374
2100.50,0.0374
2100.00,0.0374
2099.50,0.0374
2099.00,0.0374
2098.50,0.0373
2098.00,0.0373
2097.50,0.0373
2097.00,0.0373
2096.50,0.0373
2096.00,0.0372
2095.50,0.0372
2095.00,0.0372
2094.50,0.0372
2094.00,0.0372
2093.50,0.0372
2093.00,0.0372
2092.50,0.0371
2092.00,0.0371
2091.50,0.0371
2091.00,0.0371
2090.50,0.0371
2090.00,0.0371
2089.50,0.0371
2089.00,0.0371
2088.50,0.0371
2088.00,0.0371
2087.50,0.0371
2087.00,0.0370
2086.50,0.0370
2086.00,0.0370
2085.50,0.0370
2085.00,0.0370
2084.50,0.0370
2084.00,0.0370
2083.50,0.0370
2083.00,0.0370
2082.50,0.0370
2082.00,0.0371
2081.50,0.0371
2081.00,0.0371
2080.50,0.0371
2080.00,0.0371
2079.50,0.0371
2079.00,0.0371
2078.50,0.0371
2078.00,0.0371
2077.50,0.0371
2077.00,0.0371
2076.50,0.0371
2076.00,0.0371
2075.50,0.0372
2075.00,0.0372
2074.50,0.0372
2074.00,0.0372
2073.50,0.0372
2073.00,0.0372
2072.50,0.0373
2072.00,0.0373
2071.50,0.0373
2071.00,0.0373
2070.50,0.0373
2070.00,0.0373
2069.50,0.0374
2069.00,0.0374
2068.50,0.0374
2068.00,0.0374
2067.50,0.0374
2067.00,0.0375
2066.50,0.0375
2066.00,0.0375
2065.50,0.0375
2065.00,0.0376
2064.50,0.0376
2064.00,0.0376
2063.50,0.0376
2063.00,0.0377
2062.50,0.0377
2062.00,0.0377
2061.50,0.0377
2061.00,0.0378
2060.50,0.0378
2060.00,0.0378
2059.50,0.0378
2059.00,0.0378
2058.50,0.0379
2058.00,0.0379
2057.50,0.0379
2057.00,0.0379
2056.50,0.0380
2056.00,0.0380
2055.50,0.0380
2055.00,0.0380
2054.50,0.0380
2054.00,0.0381
2053.50,0.0381
2053.00,0.0381
2052.50,0.0381
2052.00,0.0381
2051.50,0.0381
2051.00,0.0381
2050.50,0.0381
2050.00,0.0380
2049.50,0.0380
2049.00,0.0380
2048.50,0.0380
2048.00,0.0379
2047.50,0.0379
2047.00,0.0378
2046.50,0.0378
2046.00,0.0377
2045.50,0.0376
2045.00,0.0376
2044.50,0.0375
2044.00,0.0374
2043.50,0.0373
2043.00,0.0373
2042.50,0.0372
2042.00,0.0371
2041.50,0.0370
2041.00,0.0369
2040.50,0.0368
2040.00,0.0368
2039.50,0.0367
2039.00,0.0366
2038.50,0.0366
2038.00,0.0365
2037.50,0.0364
2037.00,0.0364
2036.50,0.0363
2036.00,0.0363
2035.50,0.0362
2035.00,0.0362
2034.50,0.0362
2034.00,0.0361
2033.50,0.0361
2033.00,0.0361
2032.50,0.0360
2032.00,0.0360
2031.50,0.0360
2031.00,0.0360
2030.50,0.0360
2030.00,0.0359
2029.50,0.0359
2029.00,0.0359
2028.50,0.0359
2028.00,0.0359
2027.50,0.0359
2027.00,0.0359
2026.50,0.0360
2026.00,0.0360
2025.50,0.0360
2025.00,0.0360
2024.50,0.0360
2024.00,0.0360
2023.50,0.0361
2023.00,0.0361
2022.50,0.0361
2022.00,0.0362
2021.50,0.0362
2021.00,0.0362
2020.50,0.0363
2020.00,0.0363
2019.50,0.0363
2019.00,0.0364
2018.50,0.0364
2018.00,0.0364
2017.50,0.0365
2017.00,0.0365
2016.50,0.0366
2016.00,0.0366
2015.50,0.0366
2015.00,0.0367
2014.50,0.0367
2014.00,0.0368
2013.50,0.0368
2013.00,0.0369
2012.50,0.0369
2012.00,0.0370
2011.50,0.0370
2011.00,0.0371
2010.50,0.0371
2010.00,0.0371
2009.50,0.0372
2009.00,0.0372
2008.50,0.0373
2008.00,0.0373
2007.50,0.0373
2007.00,0.0374
2006.50,0.0374
2006.00,0.0374
2005.50,0.0374
2005.00,0.0374
2004.50,0.0375
2004.00,0.0375
2003.50,0.0375
2003.00,0.0375
2002.50,0.0375
2002.00,0.0376
2001.50,0.0376
2001.00,0.0376
2000.50,0.0376
2000.00,0.0376
1999.50,0.0377
1999.00,0.0377
1998.50,0.0377
1998.00,0.0377
1997.50,0.0377
1997.00,0.0377
1996.50,0.0377
1996.00,0.0377
1995.50,0.0377
1995.00,0.0377
1994.50,0.0377
1994.00,0.0377
1993.50,0.0377
1993.00,0.0377
1992.50,0.0377
1992.00,0.0377
1991.50,0.0377
1991.00,0.0377
1990.50,0.0377
1990.00,0.0377
1989.50,0.0377
1989.00,0.0377
1988.50,0.0378
1988.00,0.0378
1987.50,0.0378
1987.00,0.0379
1986.50,0.0379
1986.00,0.0379
1985.50,0.0380
1985.00,0.0380
1984.50,0.0381
1984.00,0.0381
1983.50,0.0382
1983.00,0.0382
1982.50,0.0383
1982.00,0.0383
1981.50,0.0384
1981.00,0.0384
1980.50,0.0385
1980.00,0.0386
1979.50,0.0387
1979.00,0.0387
1978.50,0.0388
1978.00,0.0389
1977.50,0.0390
1977.00,0.0390
1976.50,0.0391
1976.00,0.0392
1975.50,0.0393
1975.00,0.0394
1974.50,0.0395
1974.00,0.0396
1973.50,0.0397
1973.00,0.0398
1972.50,0.0399
1972.00,0.0400
1971.50,0.0401
1971.00,0.0402
1970.50,0.0403
1970.00,0.0404
1969.50,0.0405
1969.00,0.0407
1968.50,0.0408
1968.00,0.0409
1967.50,0.0410
1967.00,0.0411
1966.50,0.0412
1966.00,0.0413
1965.50,0.0414
1965.00,0.0415
1964.50,0.0416
1964.00,0.0417
1963.50,0.0418
1963.00,0.0419
1962.50,0.0420
1962.00,0.0421
1961.50,0.0422
1961.00,0.0423
1960.50,0.0424
1960.00,0.0424
1959.50,0.0425
1959.00,0.0426
1958.50,0.0427
1958.00,0.0428
1957.50,0.0429
1957.00,0.0430
1956.50,0.0431
1956.00,0.0432
1955.50,0.0433
1955.00,0.0434
1954.50,0.0435
1954.00,0.0436
1953.50,0.0437
1953.00,0.0438
1952.50,0.0439
1952.00,0.0440
1951.50,0.0441
1951.00,0.0443
1950.50,0.0444
1950.00,0.0445
1949.50,0.0446
1949.00,0.0447
1948.50,0.0448
1948.00,0.0449
1947.50,0.0450
1947.00,0.0451
1946.50,0.0452
1946.00,0.0452
1945.50,0.0453
1945.00,0.0453
1944.50,0.0453
1944.00,0.0453
1943.50,0.0453
1943.00,0.0453
1942.50,0.0452
1942.00,0.0451
1941.50,0.0450
1941.00,0.0449
1940.50,0.0448
1940.00,0.0447
1939.50,0.0446
1939.00,0.0444
1938.50,0.0442
1938.00,0.0440
1937.50,0.0438
1937.00,0.0437
1936.50,0.0435
1936.00,0.0433
1935.50,0.0431
1935.00,0.0430
1934.50,0.0428
1934.00,0.0427
1933.50,0.0425
1933.00,0.0424
1932.50,0.0422
1932.00,0.0421
1931.50,0.0420
1931.00,0.0419
1930.50,0.0418
1930.00,0.0417
1929.50,0.0416
1929.00,0.0415
1928.50,0.0414
1928.00,0.0414
1927.50,0.0413
1927.00,0.0412
1926.50,0.0412
1926.00,0.0411
1925.50,0.0411
1925.00,0.0410
1924.50,0.0410
1924.00,0.0409
1923.50,0.0409
1923.00,0.0408
1922.50,0.0408
1922.00,0.0407
1921.50,0.0407
1921.00,0.0407
1920.50,0.0407
1920.00,0.0406
1919.50,0.0406
1919.00,0.0405
1918.50,0.0405
1918.00,0.0404
1917.50,0.0404
1917.00,0.0403
1916.50,0.0402
1916.00,0.0402
1915.50,0.0401
1915.00,0.0400
1914.50,0.0400
1914.00,0.0399
1913.50,0.0398
1913.00,0.0397
1912.50,0.0397
1912.00,0.0396
1911.50,0.0395
1911.00,0.0394
1910.50,0.0393
1910.00,0.0393
1909.50,0.0392
1909.00,0.0391
1908.50,0.0391
1908.00,0.0390
1907.50,0.0390
1907.00,0.0389
1906.50,0.0389
1906.00,0.0388
1905.50,0.0388
1905.00,0.0387
1904.50,0.0387
1904.00,0.0387
1903.50,0.0386
1903.00,0.0386
1902.50,0.0386
1902.00,0.0386
1901.50,0.0385
1901.00,0.0385
1900.50,0.0385
1900.00,0.0385
1899.50,0.0385
1899.00,0.0384
1898.50,0.0384
1898.00,0.0384
1897.50,0.0384
1897.00,0.0384
1896.50,0.0384
1896.00,0.0384
1895.50,0.0384
1895.00,0.0384
1894.50,0.0384
1894.00,0.0384
1893.50,0.0384
1893.00,0.0384
1892.50,0.0384
1892.00,0.0384
1891.50,0.0384
1891.00,0.0384
1890.50,0.0383
1890.00,0.0383
1889.50,0.0383
1889.00,0.0383
1888.50,0.0383
1888.00,0.0383
1887.50,0.0383
1887.00,0.0384
1886.50,0.0384
1886.00,0.0384
1885.50,0.0384
1885.00,0.0384
1884.50,0.0384
1884.00,0.0383
1883.50,0.0383
1883.00,0.0383
1882.50,0.0383
1882.00,0.0383
1881.50,0.0384
1881.00,0.0384
1880.50,0.0384
1880.00,0.0384
1879.50,0.0384
1879.00,0.0384
1878.50,0.0384
1878.00,0.0384
1877.50,0.0384
1877.00,0.0384
1876.50,0.0384
1876.00,0.0384
1875.50,0.0384
1875.00,0.0384
1874.50,0.0384
1874.00,0.0385
1873.50,0.0385
1873.00,0.0385
1872.50,0.0385
1872.00,0.0385
1871.50,0.0385
1871.00,0.0385
1870.50,0.0385
1870.00,0.0385
1869.50,0.0385
1869.00,0.0385
1868.50,0.0385
1868.00,0.0385
1867.50,0.0385
1867.00,0.0384
1866.50,0.0385
1866.00,0.0385
1865.50,0.0385
1865.00,0.0385
1864.50,0.0385
1864.00,0.0385
1863.50,0.0385
1863.00,0.0385
1862.50,0.0385
1862.00,0.0385
1861.50,0.0385
1861.00,0.0385
1860.50,0.0385
1860.00,0.0385
1859.50,0.0385
1859.00,0.0385
1858.50,0.0384
1858.00,0.0384
1857.50,0.0384
1857.00,0.0384
1856.50,0.0385
1856.00,0.0385
1855.50,0.0385
1855.00,0.0385
1854.50,0.0385
1854.00,0.0385
1853.50,0.0385
1853.00,0.0385
1852.50,0.0385
1852.00,0.0385
1851.50,0.0385
1851.00,0.0385
1850.50,0.0385
1850.00,0.0385
1849.50,0.0385
1849.00,0.0385
1848.50,0.0385
1848.00,0.0385
1847.50,0.0384
1847.00,0.0384
1846.50,0.0384
1846.00,0.0384
1845.50,0.0383
1845.00,0.0383
1844.50,0.0384
1844.00,0.0384
1843.50,0.0384
1843.00,0.0384
1842.50,0.0384
1842.00,0.0383
1841.50,0.0383
1841.00,0.0383
1840.50,0.0383
1840.00,0.0384
1839.50,0.0384
1839.00,0.0384
1838.50,0.0384
1838.00,0.0384
1837.50,0.0384
1837.00,0.0383
1836.50,0.0383
1836.00,0.0383
1835.50,0.0383
1835.00,0.0383
1834.50,0.0384
1834.00,0.0384
1833.50,0.0384
1833.00,0.0384
1832.50,0.0384
1832.00,0.0384
1831.50,0.0383
1831.00,0.0383
1830.50,0.0383
1830.00,0.0383
1829.50,0.0383
1829.00,0.0383
1828.50,0.0384
1828.00,0.0384
1827.50,0.0385
1827.00,0.0385
1826.50,0.0385
1826.00,0.0385
1825.50,0.0385
1825.00,0.0385
1824.50,0.0386
1824.00,0.0386
1823.50,0.0386
1823.00,0.0386
1822.50,0.0387
1822.00,0.0387
1821.50,0.0387
1821.00,0.0388
1820.50,0.0388
1820.00,0.0388
1819.50,0.0389
1819.00,0.0389
1818.50,0.0389
1818.00,0.0390
1817.50,0.0390
1817.00,0.0390
1816.50,0.0391
1816.00,0.0391
1815.50,0.0391
1815.00,0.0392
1814.50,0.0392
1814.00,0.0393
1813.50,0.0393
1813.00,0.0393
1812.50,0.0394
1812.00,0.0394
1811.50,0.0394
1811.00,0.0395
1810.50,0.0395
1810.00,0.0395
1809.50,0.0396
1809.00,0.0396
1808.50,0.0397
1808.00,0.0397
1807.50,0.0398
1807.00,0.0398
1806.50,0.0399
1806.00,0.0399
1805.50,0.0400
1805.00,0.0400
1804.50,0.0401
1804.00,0.0401
1803.50,0.0401
1803.00,0.0402
1802.50,0.0402
1802.00,0.0403
1801.50,0.0403
1801.00,0.0403
1800.50,0.0403
1800.00,0.0404
1799.50,0.0404
1799.00,0.0405
1798.50,0.0405
1798.00,0.0406
1797.50,0.0406
1797.00,0.0407
1796.50,0.0407
1796.00,0.0408
1795.50,0.0408
1795.00,0.0409
1794.50,0.0409
1794.00,0.0409
1793.50,0.0409
1793.00,0.0410
1792.50,0.0411
1792.00,0.0411
1791.50,0.0411
1791.00,0.0412
1790.50,0.0412
1790.00,0.0413
1789.50,0.0413
1789.00,0.0413
1788.50,0.0414
1788.00,0.0414
1787.50,0.0415
1787.00,0.0415
1786.50,0.0415
1786.00,0.0416
1785.50,0.0416
1785.00,0.0416
1784.50,0.0417
1784.00,0.0417
1783.50,0.0417
1783.00,0.0417
1782.50,0.0418
1782.00,0.0418
1781.50,0.0418
1781.00,0.0418
1780.50,0.0418
1780.00,0.0418
1779.50,0.0418
1779.00,0.0418
1778.50,0.0419
1778.00,0.0419
1777.50,0.0419
1777.00,0.0419
1776.50,0.0419
1776.00,0.0418
1775.50,0.0418
1775.00,0.0418
1774.50,0.0418
1774.00,0.0418
1773.50,0.0418
1773.00,0.0419
1772.50,0.0419
1772.00,0.0418
1771.50,0.0417
1771.00,0.0417
1770.50,0.0417
1770.00,0.0417
1769.50,0.0417
1769.00,0.0417
1768.50,0.0418
1768.00,0.0418
1767.50,0.0418
1767.00,0.0418
1766.50,0.0418
1766.00,0.0417
1765.50,0.0417
1765.00,0.0417
1764.50,0.0417
1764.00,0.0417
1763.50,0.0417
1763.00,0.0417
1762.50,0.0417
1762.00,0.0417
1761.50,0.0417
1761.00,0.0417
1760.50,0.0417
1760.00,0.0417
1759.50,0.0417
1759.00,0.0417
1758.50,0.0417
1758.00,0.0417
1757.50,0.0417
1757.00,0.0417
1756.50,0.0417
1756.00,0.0417
1755.50,0.0417
1755.00,0.0417
1754.50,0.0417
1754.00,0.0417
1753.50,0.0418
1753.00,0.0418
1752.50,0.0418
1752.00,0.0419
1751.50,0.0419
1751.00,0.0420
1750.50,0.0419
1750.00,0.0419
1749.50,0.0418
1749.00,0.0419
1748.50,0.0419
1748.00,0.0419
1747.50,0.0420
1747.00,0.0421
1746.50,0.0422
1746.00,0.0422
1745.50,0.0423
1745.00,0.0424
1744.50,0.0425
1744.00,0.0425
1743.50,0.0426
1743.00,0.0426
1742.50,0.0426
1742.00,0.0427
1741.50,0.0427
1741.00,0.0427
1740.50,0.0427
1740.00,0.0427
1739.50,0.0427
1739.00,0.0427
1738.50,0.0427
1738.00,0.0427
1737.50,0.0427
1737.00,0.0428
1736.50,0.0428
1736.00,0.0428
1735.50,0.0428
1735.00,0.0429
1734.50,0.0431
1734.00,0.0431
1733.50,0.0431
1733.00,0.0431
1732.50,0.0431
1732.00,0.0431
1731.50,0.0431
1731.00,0.0431
1730.50,0.0431
1730.00,0.0431
1729.50,0.0431
1729.00,0.0431
1728.50,0.0431
1728.00,0.0431
1727.50,0.0431
1727.00,0.0431
1726.50,0.0431
1726.00,0.0431
1725.50,0.0431
1725.00,0.0431
1724.50,0.0431
1724.00,0.0431
1723.50,0.0431
1723.00,0.0430
1722.50,0.0430
1722.00,0.0430
1721.50,0.0430
1721.00,0.0430
1720.50,0.0430
1720.00,0.0430
1719.50,0.0430
1719.00,0.0430
1718.50,0.0430
1718.00,0.0429
1717.50,0.0429
1717.00,0.0430
1716.50,0.0430
1716.00,0.0430
1715.50,0.0429
1715.00,0.0429
1714.50,0.0428
1714.00,0.0428
1713.50,0.0428
1713.00,0.0428
1712.50,0.0427
1712.00,0.0427
1711.50,0.0427
1711.00,0.0427
1710.50,0.0426
1710.00,0.0426
1709.50,0.0426
1709.00,0.0426
1708.50,0.0426
1708.00,0.0426
1707.50,0.0426
1707.00,0.0426
1706.50,0.0425
1706.00,0.0425
1705.50,0.0425
1705.00,0.0425
1704.50,0.0425
1704.00,0.0425
1703.50,0.0426
1703.00,0.0426
1702.50,0.0427
1702.00,0.0426
1701.50,0.0426
1701.00,0.0427
1700.50,0.0429
1700.00,0.0426
1699.50,0.0426
1699.00,0.0427
1698.50,0.0426
1698.00,0.0426
1697.50,0.0426
1697.00,0.0425
1696.50,0.0426
1696.00,0.0427
1695.50,0.0428
1695.00,0.0428
1694.50,0.0428
1694.00,0.0427
1693.50,0.0427
1693.00,0.0427
1692.50,0.0428
1692.00,0.0428
1691.50,0.0428
1691.00,0.0428
1690.50,0.0428
1690.00,0.0428
1689.50,0.0428
1689.00,0.0428
1688.50,0.0429
1688.00,0.0429
1687.50,0.0429
1687.00,0.0429
1686.50,0.0429
1686.00,0.0429
1685.50,0.0429
1685.00,0.0431
1684.50,0.0431
1684.00,0.0429
1683.50,0.0428
1683.00,0.0428
1682.50,0.0430
1682.00,0.0430
1681.50,0.0431
1681.00,0.0431
1680.50,0.0432
1680.00,0.0432
1679.50,0.0432
1679.00,0.0433
1678.50,0.0433
1678.00,0.0433
1677.50,0.0434
1677.00,0.0434
1676.50,0.0435
1676.00,0.0435
1675.50,0.0436
1675.00,0.0436
1674.50,0.0436
1674.00,0.0437
1673.50,0.0437
1673.00,0.0437
1672.50,0.0438
1672.00,0.0438
1671.50,0.0438
1671.00,0.0439
1670.50,0.0439
1670.00,0.0439
1669.50,0.0440
1669.00,0.0440
1668.50,0.0441
1668.00,0.0441
1667.50,0.0442
1667.00,0.0442
1666.50,0.0443
1666.00,0.0443
1665.50,0.0444
1665.00,0.0445
1664.50,0.0445
1664.00,0.0445
1663.50,0.0445
1663.00,0.0446
1662.50,0.0446
1662.00,0.0447
1661.50,0.0447
1661.00,0.0448
1660.50,0.0448
1660.00,0.0449
1659.50,0.0449
1659.00,0.0450
1658.50,0.0450
1658.00,0.0451
1657.50,0.0451
1657.00,0.0452
1656.50,0.0452
1656.00,0.0452
1655.50,0.0452
1655.00,0.0453
1654.50,0.0454
1654.00,0.0454
1653.50,0.0454
1653.00,0.0454
1652.50,0.0453
1652.00,0.0455
1651.50,0.0456
1651.00,0.0456
1650.50,0.0456
1650.00,0.0457
1649.50,0.0457
1649.00,0.0458
1648.50,0.0458
1648.00,0.0458
1647.50,0.0458
1647.00,0.0459
1646.50,0.0459
1646.00,0.0460
1645.50,0.0461
1645.00,0.0462
1644.50,0.0462
1644.00,0.0462
1643.50,0.0462
1643.00,0.0463
1642.50,0.0463
1642.00,0.0464
1641.50,0.0464
1641.00,0.0465
1640.50,0.0465
1640.00,0.0465
1639.50,0.0466
1639.00,0.0466
1638.50,0.0466
1638.00,0.0467
1637.50,0.0467
1637.00,0.0468
1636.50,0.0468
1636.00,0.0468
1635.50,0.0469
1635.00,0.0468
1634.50,0.0468
1634.00,0.0469
1633.50,0.0469
1633.00,0.0470
1632.50,0.0470
1632.00,0.0471
1631.50,0.0472
1631.00,0.0472
1630.50,0.0472
1630.00,0.0473
1629.50,0.0473
1629.00,0.0473
1628.50,0.0473
1628.00,0.0474
1627.50,0.0474
1627.00,0.0474
1626.50,0.0475
1626.00,0.0476
1625.50,0.0477
1625.00,0.0477
1624.50,0.0478
1624.00,0.0478
1623.50,0.0478
1623.00,0.0478
1622.50,0.0479
1622.00,0.0479
1621.50,0.0480
1621.00,0.0481
1620.50,0.0482
1620.00,0.0482
1619.50,0.0483
1619.00,0.0484
1618.50,0.0485
1618.00,0.0485
1617.50,0.0486
1617.00,0.0487
1616.50,0.0487
1616.00,0.0487
1615.50,0.0488
1615.00,0.0488
1614.50,0.0488
1614.00,0.0489
1613.50,0.0489
1613.00,0.0490
1612.50,0.0491
1612.00,0.0491
1611.50,0.0492
1611.00,0.0492
1610.50,0.0493
1610.00,0.0493
1609.50,0.0493
1609.00,0.0494
1608.50,0.0495
1608.00,0.0495
1607.50,0.0496
1607.00,0.0496
1606.50,0.0497
1606.00,0.0497
1605.50,0.0498
1605.00,0.0499
1604.50,0.0500
1604.00,0.0500
1603.50,0.0501
1603.00,0.0502
1602.50,0.0503
1602.00,0.0504
1601.50,0.0506
1601.00,0.0508
1600.50,0.0510
1600.00,0.0513
1599.50,0.0517
1599.00,0.0521
1598.50,0.0525
1598.00,0.0529
1597.50,0.0532
1597.00,0.0533
1596.50,0.0533
1596.00,0.0531
1595.50,0.0527
1595.00,0.0523
1594.50,0.0518
1594.00,0.0514
1593.50,0.0510
1593.00,0.0507
1592.50,0.0505
1592.00,0.0502
1591.50,0.0501
1591.00,0.0499
1590.50,0.0498
1590.00,0.0497
1589.50,0.0496
1589.00,0.0495
1588.50,0.0494
1588.00,0.0493
1587.50,0.0492
1587.00,0.0492
1586.50,0.0491
1586.00,0.0490
1585.50,0.0490
1585.00,0.0489
1584.50,0.0489
1584.00,0.0488
1583.50,0.0487
1583.00,0.0487
1582.50,0.0486
1582.00,0.0485
1581.50,0.0485
1581.00,0.0485
1580.50,0.0484
1580.00,0.0483
1579.50,0.0483
1579.00,0.0482
1578.50,0.0482
1578.00,0.0481
1577.50,0.0481
1577.00,0.0481
1576.50,0.0481
1576.00,0.0479
1575.50,0.0478
1575.00,0.0477
1574.50,0.0476
1574.00,0.0475
1573.50,0.0475
1573.00,0.0475
1572.50,0.0475
1572.00,0.0474
1571.50,0.0474
1571.00,0.0474
1570.50,0.0473
1570.00,0.0472
1569.50,0.0470
1569.00,0.0469
1568.50,0.0469
1568.00,0.0469
1567.50,0.0469
1567.00,0.0469
1566.50,0.0469
1566.00,0.0468
1565.50,0.0468
1565.00,0.0467
1564.50,0.0466
1564.00,0.0466
1563.50,0.0466
1563.00,0.0466
1562.50,0.0466
1562.00,0.0466
1561.50,0.0466
1561.00,0.0467
1560.50,0.0469
1560.00,0.0470
1559.50,0.0468
1559.00,0.0466
1558.50,0.0464
1558.00,0.0463
1557.50,0.0464
1557.00,0.0465
1556.50,0.0466
1556.00,0.0465
1555.50,0.0465
1555.00,0.0466
1554.50,0.0466
1554.00,0.0466
1553.50,0.0466
1553.00,0.0466
1552.50,0.0465
1552.00,0.0465
1551.50,0.0465
1551.00,0.0466
1550.50,0.0466
1550.00,0.0466
1549.50,0.0465
1549.00,0.0465
1548.50,0.0465
1548.00,0.0466
1547.50,0.0466
1547.00,0.0466
1546.50,0.0466
1546.00,0.0467
1545.50,0.0467
1545.00,0.0467
1544.50,0.0467
1544.00,0.0467
1543.50,0.0466
1543.00,0.0466
1542.50,0.0467
1542.00,0.0467
1541.50,0.0468
1541.00,0.0468
1540.50,0.0468
1540.00,0.0468
1539.50,0.0467
1539.00,0.0466
1538.50,0.0466
1538.00,0.0467
1537.50,0.0467
1537.00,0.0467
1536.50,0.0468
1536.00,0.0468
1535.50,0.0468
1535.00,0.0468
1534.50,0.0468
1534.00,0.0468
1533.50,0.0467
1533.00,0.0467
1532.50,0.0467
1532.00,0.0468
1531.50,0.0468
1531.00,0.0468
1530.50,0.0469
1530.00,0.0469
1529.50,0.0469
1529.00,0.0469
1528.50,0.0469
1528.00,0.0469
1527.50,0.0470
1527.00,0.0470
1526.50,0.0470
1526.00,0.0470
1525.50,0.0470
1525.00,0.0470
1524.50,0.0470
1524.00,0.0470
1523.50,0.0470
1523.00,0.0470
1522.50,0.0470
1522.00,0.0470
1521.50,0.0470
1521.00,0.0470
1520.50,0.0469
1520.00,0.0469
1519.50,0.0469
1519.00,0.0469
1518.50,0.0469
1518.00,0.0469
1517.50,0.0469
1517.00,0.0468
1516.50,0.0468
1516.00,0.0468
1515.50,0.0468
1515.00,0.0468
1514.50,0.0469
1514.00,0.0469
1513.50,0.0469
1513.00,0.0469
1512.50,0.0469
1512.00,0.0469
1511.50,0.0469
1511.00,0.0469
1510.50,0.0469
1510.00,0.0469
1509.50,0.0470
1509.00,0.0470
1508.50,0.0470
1508.00,0.0471
1507.50,0.0472
1507.00,0.0472
1506.50,0.0470
1506.00,0.0468
1505.50,0.0468
1505.00,0.0469
1504.50,0.0469
1504.00,0.0469
1503.50,0.0469
1503.00,0.0470
1502.50,0.0470
1502.00,0.0470
1501.50,0.0471
1501.00,0.0471
1500.50,0.0471
1500.00,0.0471
1499.50,0.0471
1499.00,0.0471
1498.50,0.0471
1498.00,0.0471
1497.50,0.0472
1497.00,0.0473
1496.50,0.0474
1496.00,0.0475
1495.50,0.0475
1495.00,0.0475
1494.50,0.0476
1494.00,0.0476
1493.50,0.0478
1493.00,0.0479
1492.50,0.0480
1492.00,0.0481
1491.50,0.0483
1491.00,0.0484
1490.50,0.0485
1490.00,0.0486
1489.50,0.0487
1489.00,0.0489
1488.50,0.0491
1488.00,0.0492
1487.50,0.0493
1487.00,0.0494
1486.50,0.0495
1486.00,0.0496
1485.50,0.0497
1485.00,0.0497
1484.50,0.0498
1484.00,0.0498
1483.50,0.0499
1483.00,0.0500
1482.50,0.0501
1482.00,0.0501
1481.50,0.0502
1481.00,0.0503
1480.50,0.0504
1480.00,0.0504
1479.50,0.0505
1479.00,0.0505
1478.50,0.0505
1478.00,0.0505
1477.50,0.0506
1477.00,0.0506
1476.50,0.0507
1476.00,0.0507
1475.50,0.0508
1475.00,0.0509
1474.50,0.0510
1474.00,0.0511
1473.50,0.0513
1473.00,0.0514
1472.50,0.0515
1472.00,0.0516
1471.50,0.0517
1471.00,0.0519
1470.50,0.0521
1470.00,0.0523
1469.50,0.0526
1469.00,0.0529
1468.50,0.0532
1468.00,0.0534
1467.50,0.0537
1467.00,0.0540
1466.50,0.0543
1466.00,0.0546
1465.50,0.0549
1465.00,0.0553
1464.50,0.0557
1464.00,0.0561
1463.50,0.0565
1463.00,0.0569
1462.50,0.0573
1462.00,0.0578
1461.50,0.0582
1461.00,0.0587
1460.50,0.0592
1460.00,0.0597
1459.50,0.0601
1459.00,0.0606
1458.50,0.0611
1458.00,0.0616
1457.50,0.0622
1457.00,0.0629
1456.50,0.0635
1456.00,0.0639
1455.50,0.0642
1455.00,0.0646
1454.50,0.0651
1454.00,0.0656
1453.50,0.0662
1453.00,0.0668
1452.50,0.0675
1452.00,0.0681
1451.50,0.0688
1451.00,0.0695
1450.50,0.0702
1450.00,0.0708
1449.50,0.0715
1449.00,0.0722
1448.50,0.0728
1448.00,0.0734
1447.50,0.0739
1447.00,0.0743
1446.50,0.0746
1446.00,0.0748
1445.50,0.0749
1445.00,0.0749
1444.50,0.0748
1444.00,0.0746
1443.50,0.0744
1443.00,0.0740
1442.50,0.0736
1442.00,0.0731
1441.50,0.0726
1441.00,0.0721
1440.50,0.0715
1440.00,0.0710
1439.50,0.0704
1439.00,0.0700
1438.50,0.0696
1438.00,0.0693
1437.50,0.0690
1437.00,0.0685
1436.50,0.0679
1436.00,0.0674
1435.50,0.0672
1435.00,0.0671
1434.50,0.0670
1434.00,0.0670
1433.50,0.0670
1433.00,0.0671
1432.50,0.0671
1432.00,0.0673
1431.50,0.0675
1431.00,0.0678
1430.50,0.0681
1430.00,0.0684
1429.50,0.0690
1429.00,0.0696
1428.50,0.0702
1428.00,0.0708
1427.50,0.0716
1427.00,0.0725
1426.50,0.0734
1426.00,0.0744
1425.50,0.0756
1425.00,0.0768
1424.50,0.0782
1424.00,0.0799
1423.50,0.0817
1423.00,0.0835
1422.50,0.0853
1422.00,0.0872
1421.50,0.0892
1421.00,0.0911
1420.50,0.0931
1420.00,0.0954
1419.50,0.0985
1419.00,0.1016
1418.50,0.1040
1418.00,0.1059
1417.50,0.1079
1417.00,0.1099
1416.50,0.1118
1416.00,0.1136
1415.50,0.1152
1415.00,0.1166
1414.50,0.1178
1414.00,0.1188
1413.50,0.1197
1413.00,0.1203
1412.50,0.1206
1412.00,0.1208
1411.50,0.1209
1411.00,0.1207
1410.50,0.1205
1410.00,0.1201
1409.50,0.1197
1409.00,0.1190
1408.50,0.1183
1408.00,0.1175
1407.50,0.1166
1407.00,0.1156
1406.50,0.1147
1406.00,0.1138
1405.50,0.1128
1405.00,0.1116
1404.50,0.1105
1404.00,0.1096
1403.50,0.1090
1403.00,0.1083
1402.50,0.1076
1402.00,0.1070
1401.50,0.1063
1401.00,0.1056
1400.50,0.1049
1400.00,0.1040
1399.50,0.1027
1399.00,0.1011
1398.50,0.0995
1398.00,0.0980
1397.50,0.0965
1397.00,0.0950
1396.50,0.0933
1396.00,0.0917
1395.50,0.0898
1395.00,0.0877
1394.50,0.0855
1394.00,0.0836
1393.50,0.0820
1393.00,0.0807
1392.50,0.0794
1392.00,0.0782
1391.50,0.0770
1391.00,0.0758
1390.50,0.0747
1390.00,0.0737
1389.50,0.0729
1389.00,0.0721
1388.50,0.0715
1388.00,0.0708
1387.50,0.0701
1387.00,0.0694
1386.50,0.0688
1386.00,0.0684
1385.50,0.0680
1385.00,0.0676
1384.50,0.0672
1384.00,0.0669
1383.50,0.0665
1383.00,0.0662
1382.50,0.0658
1382.00,0.0655
1381.50,0.0652
1381.00,0.0649
1380.50,0.0646
1380.00,0.0644
1379.50,0.0641
1379.00,0.0639
1378.50,0.0637
1378.00,0.0635
1377.50,0.0634
1377.00,0.0632
1376.50,0.0631
1376.00,0.0631
1375.50,0.0630
1375.00,0.0629
1374.50,0.0628
1374.00,0.0628
1373.50,0.0627
1373.00,0.0627
1372.50,0.0627
1372.00,0.0626
1371.50,0.0625
1371.00,0.0624
1370.50,0.0623
1370.00,0.0621
1369.50,0.0619
1369.00,0.0617
1368.50,0.0616
1368.00,0.0614
1367.50,0.0613
1367.00,0.0612
1366.50,0.0611
1366.00,0.0610
1365.50,0.0610
1365.00,0.0609
1364.50,0.0608
1364.00,0.0608
1363.50,0.0608
1363.00,0.0607
1362.50,0.0606
1362.00,0.0606
1361.50,0.0606
1361.00,0.0605
1360.50,0.0605
1360.00,0.0605
1359.50,0.0605
1359.00,0.0605
1358.50,0.0605
1358.00,0.0605
1357.50,0.0605
1357.00,0.0605
1356.50,0.0605
1356.00,0.0605
1355.50,0.0605
1355.00,0.0605
1354.50,0.0605
1354.00,0.0605
1353.50,0.0606
1353.00,0.0606
1352.50,0.0606
1352.00,0.0606
1351.50,0.0607
1351.00,0.0607
1350.50,0.0608
1350.00,0.0609
1349.50,0.0609
1349.00,0.0609
1348.50,0.0610
1348.00,0.0611
1347.50,0.0611
1347.00,0.0612
1346.50,0.0613
1346.00,0.0613
1345.50,0.0614
1345.00,0.0614
1344.50,0.0614
1344.00,0.0615
1343.50,0.0615
1343.00,0.0616
1342.50,0.0616
1342.00,0.0616
1341.50,0.0617
1341.00,0.0617
1340.50,0.0617
1340.00,0.0617
1339.50,0.0617
1339.00,0.0617
1338.50,0.0618
1338.00,0.0619
1337.50,0.0619
1337.00,0.0620
1336.50,0.0621
1336.00,0.0622
1335.50,0.0623
1335.00,0.0624
1334.50,0.0625
1334.00,0.0627
1333.50,0.0628
1333.00,0.0630
1332.50,0.0631
1332.00,0.0633
1331.50,0.0635
1331.00,0.0636
1330.50,0.0638
1330.00,0.0640
1329.50,0.0642
1329.00,0.0644
1328.50,0.0646
1328.00,0.0648
1327.50,0.0650
1327.00,0.0652
1326.50,0.0654
1326.00,0.0657
1325.50,0.0659
1325.00,0.0661
1324.50,0.0664
1324.00,0.0667
1323.50,0.0669
1323.00,0.0672
1322.50,0.0675
1322.00,0.0678
1321.50,0.0681
1321.00,0.0684
1320.50,0.0687
1320.00,0.0690
1319.50,0.0693
1319.00,0.0696
1318.50,0.0699
1318.00,0.0703
1317.50,0.0706
1317.00,0.0710
1316.50,0.0713
1316.00,0.0717
1315.50,0.0720
1315.00,0.0724
1314.50,0.0728
1314.00,0.0732
1313.50,0.0736
1313.00,0.0739
1312.50,0.0744
1312.00,0.0748
1311.50,0.0752
1311.00,0.0756
1310.50,0.0760
1310.00,0.0764
1309.50,0.0769
1309.00,0.0773
1308.50,0.0778
1308.00,0.0783
1307.50,0.0787
1307.00,0.0792
1306.50,0.0796
1306.00,0.0801
1305.50,0.0806
1305.00,0.0811
1304.50,0.0817
1304.00,0.0822
1303.50,0.0827
1303.00,0.0833
1302.50,0.0839
1302.00,0.0845
1301.50,0.0851
1301.00,0.0857
1300.50,0.0863
1300.00,0.0870
1299.50,0.0877
1299.00,0.0884
1298.50,0.0891
1298.00,0.0899
1297.50,0.0907
1297.00,0.0915
1296.50,0.0923
1296.00,0.0932
1295.50,0.0941
1295.00,0.0950
1294.50,0.0959
1294.00,0.0969
1293.50,0.0979
1293.00,0.0989
1292.50,0.1000
1292.00,0.1011
1291.50,0.1022
1291.00,0.1034
1290.50,0.1046
1290.00,0.1059
1289.50,0.1071
1289.00,0.1085
1288.50,0.1098
1288.00,0.1113
1287.50,0.1128
1287.00,0.1144
1286.50,0.1160
1286.00,0.1177
1285.50,0.1195
1285.00,0.1215
1284.50,0.1235
1284.00,0.1257
1283.50,0.1280
1283.00,0.1304
1282.50,0.1331
1282.00,0.1359
1281.50,0.1389
1281.00,0.1421
1280.50,0.1456
1280.00,0.1495
1279.50,0.1536
1279.00,0.1581
1278.50,0.1629
1278.00,0.1683
1277.50,0.1741
1277.00,0.1805
1276.50,0.1876
1276.00,0.1954
1275.50,0.2040
1275.00,0.2136
1274.50,0.2244
1274.00,0.2363
1273.50,0.2496
1273.00,0.2646
1272.50,0.2816
1272.00,0.3012
1271.50,0.3235
1271.00,0.3491
1270.50,0.3784
1270.00,0.4121
1269.50,0.4506
1269.00,0.4947
1268.50,0.5443
1268.00,0.5995
1267.50,0.6602
1267.00,0.7256
1266.50,0.7942
1266.00,0.8643
1265.50,0.9341
1265.00,1.0016
1264.50,1.0639
1264.00,1.1187
1263.50,1.1653
1263.00,1.2030
1262.50,1.2298
1262.00,1.2449
1261.50,1.2504
1261.00,1.2471
1260.50,1.2342
1260.00,1.2127
1259.50,1.1855
1259.00,1.1539
1258.50,1.1173
1258.00,1.0765
1257.50,1.0339
1257.00,0.9909
1256.50,0.9477
1256.00,0.9049
1255.50,0.8639
1255.00,0.8248
1254.50,0.7867
1254.00,0.7491
1253.50,0.7119
1253.00,0.6747
1252.50,0.6368
1252.00,0.5981
1251.50,0.5594
1251.00,0.5213
1250.50,0.4844
1250.00,0.4493
1249.50,0.4167
1249.00,0.3871
1248.50,0.3602
1248.00,0.3360
1247.50,0.3146
1247.00,0.2958
1246.50,0.2792
1246.00,0.2646
1245.50,0.2518
1245.00,0.2406
1244.50,0.2307
1244.00,0.2219
1243.50,0.2142
1243.00,0.2073
1242.50,0.2012
1242.00,0.1957
1241.50,0.1908
1241.00,0.1864
1240.50,0.1826
1240.00,0.1790
1239.50,0.1759
1239.00,0.1732
1238.50,0.1707
1238.00,0.1684
1237.50,0.1665
1237.00,0.1647
1236.50,0.1632
1236.00,0.1618
1235.50,0.1606
1235.00,0.1596
1234.50,0.1587
1234.00,0.1580
1233.50,0.1574
1233.00,0.1570
1232.50,0.1566
1232.00,0.1564
1231.50,0.1563
1231.00,0.1563
1230.50,0.1565
1230.00,0.1567
1229.50,0.1570
1229.00,0.1574
1228.50,0.1579
1228.00,0.1584
1227.50,0.1591
1227.00,0.1599
1226.50,0.1608
1226.00,0.1617
1225.50,0.1627
1225.00,0.1639
1224.50,0.1651
1224.00,0.1663
1223.50,0.1676
1223.00,0.1690
1222.50,0.1705
1222.00,0.1720
1221.50,0.1736
1221.00,0.1753
1220.50,0.1770
1220.00,0.1788
1219.50,0.1807
1219.00,0.1826
1218.50,0.1846
1218.00,0.1866
1217.50,0.1886
1217.00,0.1908
1216.50,0.1929
1216.00,0.1951
1215.50,0.1973
1215.00,0.1996
1214.50,0.2018
1214.00,0.2041
1213.50,0.2064
1213.00,0.2088
1212.50,0.2112
1212.00,0.2135
1211.50,0.2159
1211.00,0.2184
1210.50,0.2207
1210.00,0.2231
1209.50,0.2254
1209.00,0.2278
1208.50,0.2302
1208.00,0.2325
1207.50,0.2348
1207.00,0.2371
1206.50,0.2394
1206.00,0.2416
1205.50,0.2439
1205.00,0.2461
1204.50,0.2482
1204.00,0.2503
1203.50,0.2524
1203.00,0.2545
1202.50,0.2565
1202.00,0.2584
1201.50,0.2604
1201.00,0.2623
1200.50,0.2642
1200.00,0.2660
1199.50,0.2678
1199.00,0.2695
1198.50,0.2713
1198.00,0.2729
1197.50,0.2745
1197.00,0.2762
1196.50,0.2777
1196.00,0.2792
1195.50,0.2807
1195.00,0.2822
1194.50,0.2836
1194.00,0.2849
1193.50,0.2863
1193.00,0.2876
1192.50,0.2889
1192.00,0.2901
1191.50,0.2913
1191.00,0.2925
1190.50,0.2937
1190.00,0.2949
1189.50,0.2960
1189.00,0.2971
1188.50,0.2982
1188.00,0.2992
1187.50,0.3003
1187.00,0.3014
1186.50,0.3024
1186.00,0.3033
1185.50,0.3042
1185.00,0.3052
1184.50,0.3062
1184.00,0.3071
1183.50,0.3080
1183.00,0.3090
1182.50,0.3099
1182.00,0.3108
1181.50,0.3117
1181.00,0.3127
1180.50,0.3136
1180.00,0.3146
1179.50,0.3155
1179.00,0.3166
1178.50,0.3176
1178.00,0.3185
1177.50,0.3195
1177.00,0.3206
1176.50,0.3217
1176.00,0.3227
1175.50,0.3238
1175.00,0.3249
1174.50,0.3261
1174.00,0.3271
1173.50,0.3282
1173.00,0.3294
1172.50,0.3306
1172.00,0.3316
1171.50,0.3327
1171.00,0.3338
1170.50,0.3349
1170.00,0.3360
1169.50,0.3371
1169.00,0.3383
1168.50,0.3395
1168.00,0.3407
1167.50,0.3420
1167.00,0.3433
1166.50,0.3446
1166.00,0.3459
1165.50,0.3473
1165.00,0.3488
1164.50,0.3503
1164.00,0.3517
1163.50,0.3533
1163.00,0.3549
1162.50,0.3565
1162.00,0.3581
1161.50,0.3598
1161.00,0.3616
1160.50,0.3635
1160.00,0.3653
1159.50,0.3671
1159.00,0.3691
1158.50,0.3711
1158.00,0.3731
1157.50,0.3752
1157.00,0.3774
1156.50,0.3797
1156.00,0.3819
1155.50,0.3843
1155.00,0.3867
1154.50,0.3892
1154.00,0.3917
1153.50,0.3943
1153.00,0.3970
1152.50,0.3998
1152.00,0.4025
1151.50,0.4054
1151.00,0.4085
1150.50,0.4115
1150.00,0.4147
1149.50,0.4179
1149.00,0.4213
1148.50,0.4248
1148.00,0.4282
1147.50,0.4319
1147.00,0.4357
1146.50,0.4396
1146.00,0.4435
1145.50,0.4476
1145.00,0.4519
1144.50,0.4563
1144.00,0.4607
1143.50,0.4653
1143.00,0.4702
1142.50,0.4751
1142.00,0.4801
1141.50,0.4853
1141.00,0.4907
1140.50,0.4963
1140.00,0.5018
1139.50,0.5076
1139.00,0.5137
1138.50,0.5199
1138.00,0.5260
1137.50,0.5324
1137.00,0.5390
1136.50,0.5457
1136.00,0.5525
1135.50,0.5597
1135.00,0.5671
1134.50,0.5748
1134.00,0.5825
1133.50,0.5906
1133.00,0.5991
1132.50,0.6077
1132.00,0.6166
1131.50,0.6259
1131.00,0.6356
1130.50,0.6456
1130.00,0.6557
1129.50,0.6663
1129.00,0.6773
1128.50,0.6886
1128.00,0.7000
1127.50,0.7119
1127.00,0.7243
1126.50,0.7370
1126.00,0.7498
1125.50,0.7631
1125.00,0.7769
1124.50,0.7910
1124.00,0.8051
1123.50,0.8197
1123.00,0.8350
1122.50,0.8505
1122.00,0.8661
1121.50,0.8821
1121.00,0.8987
1120.50,0.9155
1120.00,0.9321
1119.50,0.9492
1119.00,0.9670
1118.50,0.9847
1118.00,1.0022
1117.50,1.0201
1117.00,1.0388
1116.50,1.0573
1116.00,1.0755
1115.50,1.0942
1115.00,1.1135
1114.50,1.1325
1114.00,1.1509
1113.50,1.1697
1113.00,1.1893
1112.50,1.2084
1112.00,1.2267
1111.50,1.2453
1111.00,1.2645
1110.50,1.2830
1110.00,1.3004
1109.50,1.3183
1109.00,1.3372
1108.50,1.3553
1108.00,1.3723
1107.50,1.3897
1107.00,1.4081
1106.50,1.4255
1106.00,1.4414
1105.50,1.4576
1105.00,1.4746
1104.50,1.4904
1104.00,1.5044
1103.50,1.5188
1103.00,1.5342
1102.50,1.5480
1102.00,1.5599
1101.50,1.5724
1101.00,1.5865
1100.50,1.5991
1100.00,1.6093
1099.50,1.6199
1099.00,1.6316
1098.50,1.6415
1098.00,1.6488
1097.50,1.6570
1097.00,1.6670
1096.50,1.6755
1096.00,1.6814
1095.50,1.6883
1095.00,1.6969
1094.50,1.7033
1094.00,1.7065
1093.50,1.7107
1093.00,1.7165
1092.50,1.7202
1092.00,1.7211
1091.50,1.7232
1091.00,1.7274
1090.50,1.7296
1090.00,1.7288
1089.50,1.7292
1089.00,1.7319
1088.50,1.7327
1088.00,1.7306
1087.50,1.7298
1087.00,1.7312
1086.50,1.7308
1086.00,1.7275
1085.50,1.7254
1085.00,1.7252
1084.50,1.7233
1084.00,1.7186
1083.50,1.7151
1083.00,1.7134
1082.50,1.7099
1082.00,1.7040
1081.50,1.6996
1081.00,1.6976
1080.50,1.6941
1080.00,1.6884
1079.50,1.6838
1079.00,1.6810
1078.50,1.6764
1078.00,1.6695
1077.50,1.6638
1077.00,1.6602
1076.50,1.6551
1076.00,1.6478
1075.50,1.6418
1075.00,1.6376
1074.50,1.6323
1074.00,1.6251
1073.50,1.6193
1073.00,1.6154
1072.50,1.6103
1072.00,1.6034
1071.50,1.5975
1071.00,1.5927
1070.50,1.5865
1070.00,1.5784
1069.50,1.5718
1069.00,1.5674
1068.50,1.5622
1068.00,1.5551
1067.50,1.5487
1067.00,1.5439
1066.50,1.5384
1066.00,1.5314
1065.50,1.5252
1065.00,1.5204
1064.50,1.5147
1064.00,1.5076
1063.50,1.5014
1063.00,1.4966
1062.50,1.4911
1062.00,1.4844
1061.50,1.4785
1061.00,1.4739
1060.50,1.4686
1060.00,1.4620
1059.50,1.4560
1059.00,1.4512
1058.50,1.4458
1058.00,1.4396
1057.50,1.4343
1057.00,1.4301
1056.50,1.4252
1056.00,1.4194
1055.50,1.4144
1055.00,1.4107
1054.50,1.4064
1054.00,1.4010
1053.50,1.3965
1053.00,1.3932
1052.50,1.3892
1052.00,1.3840
1051.50,1.3796
1051.00,1.3768
1050.50,1.3735
1050.00,1.3692
1049.50,1.3656
1049.00,1.3633
1048.50,1.3607
1048.00,1.3573
1047.50,1.3548
1047.00,1.3535
1046.50,1.3518
1046.00,1.3492
1045.50,1.3473
1045.00,1.3467
1044.50,1.3459
1044.00,1.3446
1043.50,1.3441
1043.00,1.3445
1042.50,1.3445
1042.00,1.3434
1041.50,1.3429
1041.00,1.3434
1040.50,1.3437
1040.00,1.3435
1039.50,1.3441
1039.00,1.3456
1038.50,1.3468
1038.00,1.3474
1037.50,1.3488
1037.00,1.3511
1036.50,1.3529
1036.00,1.3539
1035.50,1.3555
1035.00,1.3580
1034.50,1.3600
1034.00,1.3613
1033.50,1.3634
1033.00,1.3665
1032.50,1.3693
1032.00,1.3713
1031.50,1.3738
1031.00,1.3774
1030.50,1.3805
1030.00,1.3828
1029.50,1.3856
1029.00,1.3893
1028.50,1.3925
1028.00,1.3947
1027.50,1.3973
1027.00,1.4008
1026.50,1.4038
1026.00,1.4057
1025.50,1.4081
1025.00,1.4113
1024.50,1.4137
1024.00,1.4149
1023.50,1.4162
1023.00,1.4182
1022.50,1.4195
1022.00,1.4195
1021.50,1.4197
1021.00,1.4201
1020.50,1.4192
1020.00,1.4166
1019.50,1.4136
1019.00,1.4107
1018.50,1.4061
1018.00,1.3996
1017.50,1.3925
1017.00,1.3852
1016.50,1.3762
1016.00,1.3652
1015.50,1.3532
1015.00,1.3407
1014.50,1.3263
1014.00,1.3099
1013.50,1.2927
1013.00,1.2750
1012.50,1.2559
1012.00,1.2353
1011.50,1.2143
1011.00,1.1933
1010.50,1.1715
1010.00,1.1489
1009.50,1.1263
1009.00,1.1042
1008.50,1.0820
1008.00,1.0598
1007.50,1.0382
1007.00,1.0175
1006.50,0.9972
1006.00,0.9771
1005.50,0.9579
1005.00,0.9395
1004.50,0.9217
1004.00,0.9044
1003.50,0.8878
1003.00,0.8722
1002.50,0.8571
1002.00,0.8425
1001.50,0.8289
1001.00,0.8161
1000.50,0.8040
1000.00,0.7924
999.50,0.7815
999.00,0.7714
998.50,0.7618
998.00,0.7526
997.50,0.7441
997.00,0.7363
996.50,0.7288
996.00,0.7217
995.50,0.7151
995.00,0.7091
994.50,0.7033
994.00,0.6979
993.50,0.6928
993.00,0.6882
992.50,0.6839
992.00,0.6797
991.50,0.6759
991.00,0.6724
990.50,0.6692
990.00,0.6660
989.50,0.6632
989.00,0.6607
988.50,0.6583
988.00,0.6560
987.50,0.6540
987.00,0.6523
986.50,0.6507
986.00,0.6491
985.50,0.6477
985.00,0.6466
984.50,0.6456
984.00,0.6447
983.50,0.6439
983.00,0.6433
982.50,0.6428
982.00,0.6424
981.50,0.6421
981.00,0.6420
980.50,0.6420
980.00,0.6420
979.50,0.6422
979.00,0.6425
978.50,0.6429
978.00,0.6432
977.50,0.6438
977.00,0.6445
976.50,0.6453
976.00,0.6460
975.50,0.6469
975.00,0.6479
974.50,0.6490
974.00,0.6500
973.50,0.6512
973.00,0.6526
972.50,0.6539
972.00,0.6552
971.50,0.6567
971.00,0.6583
970.50,0.6599
970.00,0.6615
969.50,0.6632
969.00,0.6651
968.50,0.6670
968.00,0.6689
967.50,0.6708
967.00,0.6729
966.50,0.6750
966.00,0.6771
965.50,0.6792
965.00,0.6816
964.50,0.6839
964.00,0.6863
963.50,0.6888
963.00,0.6914
962.50,0.6941
962.00,0.6967
961.50,0.6994
961.00,0.7022
960.50,0.7049
960.00,0.7075
959.50,0.7103
959.00,0.7133
958.50,0.7162
958.00,0.7189
957.50,0.7218
957.00,0.7247
956.50,0.7276
956.00,0.7303
955.50,0.7331
955.00,0.7359
954.50,0.7386
954.00,0.7410
953.50,0.7436
953.00,0.7462
952.50,0.7488
952.00,0.7512
951.50,0.7538
951.00,0.7566
950.50,0.7594
950.00,0.7621
949.50,0.7649
949.00,0.7678
948.50,0.7708
948.00,0.7738
947.50,0.7769
947.00,0.7803
946.50,0.7837
946.00,0.7869
945.50,0.7902
945.00,0.7937
944.50,0.7973
944.00,0.8008
943.50,0.8044
943.00,0.8082
942.50,0.8119
942.00,0.8156
941.50,0.8194
941.00,0.8234
940.50,0.8274
940.00,0.8312
939.50,0.8352
939.00,0.8393
938.50,0.8435
938.00,0.8476
937.50,0.8518
937.00,0.8562
936.50,0.8606
936.00,0.8650
935.50,0.8694
935.00,0.8741
934.50,0.8787
934.00,0.8832
933.50,0.8879
933.00,0.8928
932.50,0.8977
932.00,0.9025
931.50,0.9075
931.00,0.9127
930.50,0.9179
930.00,0.9230
929.50,0.9282
929.00,0.9336
928.50,0.9389
928.00,0.9441
927.50,0.9494
927.00,0.9550
926.50,0.9603
926.00,0.9655
925.50,0.9708
925.00,0.9765
924.50,0.9822
924.00,0.9877
923.50,0.9934
923.00,0.9993
922.50,1.0053
922.00,1.0111
921.50,1.0173
921.00,1.0240
920.50,1.0308
920.00,1.0373
919.50,1.0441
919.00,1.0512
918.50,1.0582
918.00,1.0649
917.50,1.0717
917.00,1.0788
916.50,1.0859
916.00,1.0925
915.50,1.0991
915.00,1.1059
914.50,1.1124
914.00,1.1184
913.50,1.1244
913.00,1.1305
912.50,1.1364
912.00,1.1418
911.50,1.1473
911.00,1.1531
910.50,1.1585
910.00,1.1633
909.50,1.1682
909.00,1.1734
908.50,1.1783
908.00,1.1829
907.50,1.1877
907.00,1.1931
906.50,1.1984
906.00,1.2034
905.50,1.2087
905.00,1.2145
904.50,1.2204
904.00,1.2258
903.50,1.2316
903.00,1.2379
902.50,1.2441
902.00,1.2499
901.50,1.2560
901.00,1.2629
900.50,1.2697
900.00,1.2762
899.50,1.2832
899.00,1.2910
898.50,1.2989
898.00,1.3063
897.50,1.3139
897.00,1.3219
896.50,1.3297
896.00,1.3370
895.50,1.3446
895.00,1.3529
894.50,1.3610
894.00,1.3684
893.50,1.3759
893.00,1.3840
892.50,1.3921
892.00,1.3999
891.50,1.4083
891.00,1.4176
890.50,1.4265
890.00,1.4344
889.50,1.4426
889.00,1.4518
888.50,1.4609
888.00,1.4692
887.50,1.4781
887.00,1.4882
886.50,1.4985
886.00,1.5081
885.50,1.5181
885.00,1.5294
884.50,1.5407
884.00,1.5514
883.50,1.5628
883.00,1.5752
882.50,1.5873
882.00,1.5981
881.50,1.6094
881.00,1.6219
880.50,1.6343
880.00,1.6459
879.50,1.6587
879.00,1.6737
878.50,1.6886
878.00,1.7019
877.50,1.7154
877.00,1.7306
876.50,1.7453
876.00,1.7586
875.50,1.7726
875.00,1.7882
874.50,1.8028
874.00,1.8154
873.50,1.8290
873.00,1.8452
872.50,1.8610
872.00,1.8748
871.50,1.8896
871.00,1.9067
870.50,1.9220
870.00,1.9332
869.50,1.9440
869.00,1.9566
868.50,1.9679
868.00,1.9765
867.50,1.9853
867.00,1.9955
866.50,2.0027
866.00,2.0054
865.50,2.0081
865.00,2.0134
864.50,2.0181
864.00,2.0208
863.50,2.0252
863.00,2.0320
862.50,2.0362
862.00,2.0369
861.50,2.0392
861.00,2.0456
860.50,2.0512
860.00,2.0533
859.50,2.0561
859.00,2.0619
858.50,2.0668
858.00,2.0689
857.50,2.0730
857.00,2.0809
856.50,2.0880
856.00,2.0923
855.50,2.0987
855.00,2.1090
854.50,2.1179
854.00,2.1228
853.50,2.1301
853.00,2.1436
852.50,2.1581
852.00,2.1684
851.50,2.1774
851.00,2.1883
850.50,2.1978
850.00,2.2044
849.50,2.2136
849.00,2.2275
848.50,2.2406
848.00,2.2503
847.50,2.2619
847.00,2.2758
846.50,2.2827
846.00,2.2809
845.50,2.2810
845.00,2.2881
844.50,2.2944
844.00,2.2950
843.50,2.2967
843.00,2.3036
842.50,2.3083
842.00,2.3065
841.50,2.3054
841.00,2.3082
840.50,2.3087
840.00,2.3054
839.50,2.3067
839.00,2.3148
838.50,2.3202
838.00,2.3192
837.50,2.3209
837.00,2.3299
836.50,2.3366
836.00,2.3353
835.50,2.3346
835.00,2.3403
834.50,2.3461
834.00,2.3480
833.50,2.3535
833.00,2.3658
832.50,2.3744
832.00,2.3742
831.50,2.3757
831.00,2.3851
830.50,2.3924
830.00,2.3921
829.50,2.3946
829.00,2.4069
828.50,2.4184
828.00,2.4209
827.50,2.4248
827.00,2.4373
826.50,2.4470
826.00,2.4467
825.50,2.4506
825.00,2.4666
824.50,2.4790
824.00,2.4774
823.50,2.4743
823.00,2.4789
822.50,2.4816
822.00,2.4776
821.50,2.4786
821.00,2.4887
820.50,2.4945
820.00,2.4911
819.50,2.4921
819.00,2.5017
818.50,2.5053
818.00,2.4983
817.50,2.4966
817.00,2.5080
816.50,2.5192
816.00,2.5200
815.50,2.5210
815.00,2.5282
814.50,2.5287
814.00,2.5168
813.50,2.5073
813.00,2.5100
812.50,2.5150
812.00,2.5136
811.50,2.5139
811.00,2.5202
810.50,2.5223
810.00,2.5169
809.50,2.5161
809.00,2.5254
808.50,2.5316
808.00,2.5270
807.50,2.5225
807.00,2.5250
806.50,2.5250
806.00,2.5182
805.50,2.5161
805.00,2.5238
804.50,2.5282
804.00,2.5215
803.50,2.5160
803.00,2.5199
802.50,2.5247
802.00,2.5240
801.50,2.5264
801.00,2.5355
800.50,2.5395
800.00,2.5331
799.50,2.5283
799.00,2.5313
798.50,2.5323
798.00,2.5258
797.50,2.5219
797.00,2.5262
796.50,2.5291
796.00,2.5260
795.50,2.5272
795.00,2.5359
794.50,2.5404
794.00,2.5349
793.50,2.5317
793.00,2.5387
792.50,2.5447
792.00,2.5414
791.50,2.5388
791.00,2.5425
790.50,2.5416
790.00,2.5319
789.50,2.5270
789.00,2.5328
788.50,2.5367
788.00,2.5308
787.50,2.5273
787.00,2.5349
786.50,2.5429
786.00,2.5411
785.50,2.5382
785.00,2.5425
784.50,2.5458
784.00,2.5409
783.50,2.5358
783.00,2.5371
782.50,2.5373
782.00,2.5319
781.50,2.5299
781.00,2.5350
780.50,2.5376
780.00,2.5338
779.50,2.5346
779.00,2.5448
778.50,2.5535
778.00,2.5536
777.50,2.5533
777.00,2.5583
776.50,2.5592
776.00,2.5506
775.50,2.5441
775.00,2.5454
774.50,2.5448
774.00,2.5370
773.50,2.5320
773.00,2.5355
772.50,2.5371
772.00,2.5302
771.50,2.5251
771.00,2.5297
770.50,2.5362
770.00,2.5374
769.50,2.5388
769.00,2.5450
768.50,2.5489
768.00,2.5469
767.50,2.5481
767.00,2.5557
766.50,2.5579
766.00,2.5493
765.50,2.5416
765.00,2.5430
764.50,2.5449
764.00,2.5395
763.50,2.5346
763.00,2.5376
762.50,2.5420
762.00,2.5416
761.50,2.5425
761.00,2.5478
760.50,2.5492
760.00,2.5425
759.50,2.5364
759.00,2.5366
758.50,2.5365
758.00,2.5338
757.50,2.5364
757.00,2.5453
756.50,2.5484
756.00,2.5411
755.50,2.5365
755.00,2.5427
754.50,2.5502
754.00,2.5503
753.50,2.5493
753.00,2.5523
752.50,2.5518
752.00,2.5447
751.50,2.5421
751.00,2.5491
750.50,2.5549
750.00,2.5520
749.50,2.5492
749.00,2.5535
748.50,2.5573
748.00,2.5530
747.50,2.5478
747.00,2.5486
746.50,2.5498
746.00,2.5478
745.50,2.5501
745.00,2.5603
744.50,2.5677
744.00,2.5641
743.50,2.5586
743.00,2.5606
742.50,2.5651
742.00,2.5664
741.50,2.5691
741.00,2.5748
740.50,2.5738
740.00,2.5635
739.50,2.5569
739.00,2.5605
738.50,2.5631
738.00,2.5559
737.50,2.5475
737.00,2.5473
736.50,2.5511
736.00,2.5525
735.50,2.5559
735.00,2.5644
734.50,2.5698
734.00,2.5661
733.50,2.5603
733.00,2.5588
732.50,2.5571
732.00,2.5526
731.50,2.5532
731.00,2.5637
730.50,2.5748
730.00,2.5767
729.50,2.5738
729.00,2.5730
728.50,2.5705
728.00,2.5638
727.50,2.5601
727.00,2.5643
726.50,2.5688
726.00,2.5675
725.50,2.5660
725.00,2.5683
724.50,2.5677
724.00,2.5613
723.50,2.5574
723.00,2.5608
722.50,2.5636
722.00,2.5608
721.50,2.5612
721.00,2.5718
720.50,2.5835
720.00,2.5842
719.50,2.5780
719.00,2.5735
718.50,2.5685
718.00,2.5604
717.50,2.5545
717.00,2.5566
716.50,2.5629
716.00,2.5674
715.50,2.5712
715.00,2.5743
714.50,2.5707
714.00,2.5615
713.50,2.5573
713.00,2.5627
712.50,2.5674
712.00,2.5626
711.50,2.5553
711.00,2.5534
710.50,2.5537
710.00,2.5517
709.50,2.5514
709.00,2.5557
708.50,2.5578
708.00,2.5533
707.50,2.5498
707.00,2.5541
706.50,2.5601
706.00,2.5605
705.50,2.5601
705.00,2.5644
704.50,2.5677
704.00,2.5639
703.50,2.5576
703.00,2.5554
702.50,2.5552
702.00,2.5540
701.50,2.5568
701.00,2.5668
700.50,2.5755
700.00,2.5746
699.50,2.5688
699.00,2.5662
698.50,2.5660
698.00,2.5642
697.50,2.5632
697.00,2.5660
696.50,2.5687
696.00,2.5669
695.50,2.5648
695.00,2.5670
694.50,2.5696
694.00,2.5682
693.50,2.5673
693.00,2.5712
692.50,2.5753
692.00,2.5734
691.50,2.5689
691.00,2.5679
690.50,2.5694
690.00,2.5703
689.50,2.5725
689.00,2.5779
688.50,2.5825
688.00,2.5845
687.50,2.5885
687.00,2.5958
686.50,2.5987
686.00,2.5939
685.50,2.5897
685.00,2.5920
684.50,2.5941
684.00,2.5907
683.50,2.5868
683.00,2.5897
682.50,2.5975
682.00,2.6030
681.50,2.6058
681.00,2.6073
680.50,2.6049
680.00,2.5985
679.50,2.5942
679.00,2.5940
678.50,2.5908
678.00,2.5819
677.50,2.5752
677.00,2.5778
676.50,2.5842
676.00,2.5876
675.50,2.5911
675.00,2.5991
674.50,2.6074
674.00,2.6098
673.50,2.6086
673.00,2.6100
672.50,2.6147
672.00,2.6196
671.50,2.6227
671.00,2.6212
670.50,2.6102
670.00,2.5897
669.50,2.5679
669.00,2.5523
668.50,2.5553
668.00,2.5898
667.50,2.6236
667.00,2.6250
666.50,2.6123
666.00,2.5996
665.50,2.5937
665.00,2.5956
664.50,2.5958
664.00,2.5897
663.50,2.5826
663.00,2.5819
662.50,2.5871
662.00,2.5928
661.50,2.5981
661.00,2.6038
660.50,2.6055
660.00,2.6017
659.50,2.5985
659.00,2.6021
658.50,2.6077
658.00,2.6093
657.50,2.6101
657.00,2.6129
656.50,2.6141
656.00,2.6097
655.50,2.6009
655.00,2.5947
654.50,2.5935
654.00,2.5957
653.50,2.6043
653.00,2.6201
652.50,2.6331
652.00,2.6339
651.50,2.6230
651.00,2.6090
650.50,2.5992
650.00,2.5931
649.50,2.5929
649.00,2.5995
648.50,2.6061
648.00,2.6089
647.50,2.6074
647.00,2.6032
646.50,2.5969
646.00,2.5908
645.50,2.5899
645.00,2.5939
644.50,2.5966
644.00,2.5930
643.50,2.5866
643.00,2.5842
642.50,2.5899
642.00,2.6026
641.50,2.6157
641.00,2.6235
640.50,2.6262
640.00,2.6301
639.50,2.6408
639.00,2.6560
638.50,2.6632
638.00,2.6519
637.50,2.6295
637.00,2.6106
636.50,2.6017
636.00,2.6000
635.50,2.5953
635.00,2.5834
634.50,2.5719
634.00,2.5661
633.50,2.5657
633.00,2.5695
632.50,2.5738
632.00,2.5765
631.50,2.5799
631.00,2.5862
630.50,2.5942
630.00,2.5999
629.50,2.5988
629.00,2.5914
628.50,2.5840
628.00,2.5813
627.50,2.5854
627.00,2.5945
626.50,2.6023
626.00,2.6074
625.50,2.6127
625.00,2.6186
624.50,2.6182
624.00,2.6098
623.50,2.5994
623.00,2.5959
622.50,2.6029
622.00,2.6123
621.50,2.6133
621.00,2.6067
620.50,2.6074
620.00,2.6246
619.50,2.6497
619.00,2.6582
618.50,2.6362
618.00,2.6077
617.50,2.5988
617.00,2.6156
616.50,2.6412
616.00,2.6496
615.50,2.6365
615.00,2.6219
614.50,2.6241
614.00,2.6400
613.50,2.6541
613.00,2.6495
612.50,2.6291
612.00,2.6155
611.50,2.6225
611.00,2.6420
610.50,2.6489
610.00,2.6362
609.50,2.6197
609.00,2.6188
608.50,2.6376
608.00,2.6577
607.50,2.6594
607.00,2.6429
606.50,2.6280
606.00,2.6275
605.50,2.6333
605.00,2.6371
604.50,2.6396
604.00,2.6417
603.50,2.6384
603.00,2.6285
602.50,2.6182
602.00,2.6217
601.50,2.6606
601.00,2.7442
600.50,2.8302
600.00,2.8335
599.50,2.7540
599.00,2.6711
598.50,2.6294
598.00,2.6234
597.50,2.6284
597.00,2.6341
596.50,2.6440
596.00,2.6584
595.50,2.6673
595.00,2.6651
594.50,2.6610
594.00,2.6596
593.50,2.6517
593.00,2.6371
592.50,2.6312
592.00,2.6424
591.50,2.6637
591.00,2.6819
590.50,2.6789
590.00,2.6582
589.50,2.6372
589.00,2.6320
588.50,2.6475
588.00,2.6635
587.50,2.6530
587.00,2.6216
586.50,2.6029
586.00,2.6118
585.50,2.6404
585.00,2.6632
584.50,2.6567
584.00,2.6384
583.50,2.6299
583.00,2.6388
582.50,2.6597
582.00,2.6716
581.50,2.6588
581.00,2.6347
580.50,2.6274
580.00,2.6453
579.50,2.6693
579.00,2.6738
578.50,2.6585
578.00,2.6417
577.50,2.6273
577.00,2.6234
576.50,2.6394
576.00,2.6653
575.50,2.6747
575.00,2.6575
574.50,2.6402
574.00,2.6402
573.50,2.6490
573.00,2.6503
572.50,2.6371
572.00,2.6186
571.50,2.6033
571.00,2.6050
570.50,2.6309
570.00,2.6645
569.50,2.6760
569.00,2.6630
568.50,2.6559
568.00,2.6669
567.50,2.6794
567.00,2.6667
566.50,2.6369
566.00,2.6232
565.50,2.6269
565.00,2.6394
564.50,2.6496
564.00,2.6494
563.50,2.6417
563.00,2.6384
562.50,2.6517
562.00,2.6712
561.50,2.6715
561.00,2.6475
560.50,2.6290
560.00,2.6333
559.50,2.6445
559.00,2.6468
558.50,2.6478
558.00,2.6589
557.50,2.6724
557.00,2.6799
556.50,2.6816
556.00,2.6753
555.50,2.6541
555.00,2.6277
554.50,2.6199
554.00,2.6346
553.50,2.6492
553.00,2.6466
552.50,2.6438
552.00,2.6572
551.50,2.6694
551.00,2.6656
550.50,2.6562
550.00,2.6512
549.50,2.6395
549.00,2.6168
548.50,2.6022
548.00,2.6064
547.50,2.6161
547.00,2.6201
546.50,2.6291
546.00,2.6507
545.50,2.6715
545.00,2.6765
544.50,2.6731
544.00,2.6704
543.50,2.6564
543.00,2.6314
542.50,2.6139
542.00,2.6122
541.50,2.6112
541.00,2.6038
540.50,2.6086
540.00,2.6362
539.50,2.6639
539.00,2.6642
538.50,2.6505
538.00,2.6455
537.50,2.6411
537.00,2.6244
536.50,2.6091
536.00,2.6156
535.50,2.6328
535.00,2.6374
534.50,2.6300
534.00,2.6224
533.50,2.6141
533.00,2.6054
532.50,2.6096
532.00,2.6287
531.50,2.6392
531.00,2.6305
530.50,2.6255
530.00,2.6404
529.50,2.6557
529.00,2.6513
528.50,2.6409
528.00,2.6414
527.50,2.6424
527.00,2.6326
526.50,2.6244
526.00,2.6310
525.50,2.6400
525.00,2.6373
524.50,2.6355
524.00,2.6474
523.50,2.6570
523.00,2.6559
522.50,2.6640
522.00,2.6886
521.50,2.7031
521.00,2.6889
520.50,2.6755
520.00,2.6856
519.50,2.6956
519.00,2.6853
518.50,2.6734
518.00,2.6708
517.50,2.6541
517.00,2.6259
516.50,2.6154
516.00,2.6259
515.50,2.6283
515.00,2.6120
514.50,2.6082
514.00,2.6333
513.50,2.6565
513.00,2.6549
512.50,2.6545
512.00,2.6704
511.50,2.6706
511.00,2.6376
510.50,2.6131
510.00,2.6248
509.50,2.6417
509.00,2.6250
508.50,2.5936
508.00,2.5812
507.50,2.5862
507.00,2.6077
506.50,2.6508
506.00,2.6939
505.50,2.6929
505.00,2.6531
504.50,2.6467
504.00,2.7042
503.50,2.7612
503.00,2.7282
502.50,2.6550
502.00,2.6340
501.50,2.6550
501.00,2.6667
500.50,2.6590
500.00,2.6554
499.50,2.6594
499.00,2.6685
498.50,2.7038
498.00,2.7651
497.50,2.7835
497.00,2.7150
496.50,2.6427
496.00,2.6260
495.50,2.6344
495.00,2.6290
494.50,2.6238
494.00,2.6347
493.50,2.6413
493.00,2.6290
492.50,2.6210
492.00,2.6397
491.50,2.6601
491.00,2.6592
490.50,2.6670
490.00,2.6979
489.50,2.7135
489.00,2.6817
488.50,2.6458
488.00,2.6484
487.50,2.6523
487.00,2.6235
486.50,2.5985
486.00,2.6126
485.50,2.6404
485.00,2.6490
484.50,2.6658
484.00,2.7156
483.50,2.7579
483.00,2.7302
482.50,2.6656
482.00,2.6380
481.50,2.6245
481.00,2.5925
480.50,2.5789
480.00,2.6064
479.50,2.6368
479.00,2.6350
478.50,2.6424
478.00,2.6911
477.50,2.7338
477.00,2.7072
476.50,2.6606
476.00,2.6767
475.50,2.7238
475.00,2.7250
474.50,2.7066
474.00,2.7067
473.50,2.6854
473.00,2.6140
472.50,2.5689
472.00,2.5901
471.50,2.6157
471.00,2.6025
470.50,2.5893
470.00,2.6181
469.50,2.6517
469.00,2.6410
468.50,2.6294
468.00,2.6553
467.50,2.6670
467.00,2.6179
466.50,2.5763
466.00,2.5846
465.50,2.6039
465.00,2.5989
464.50,2.5992
464.00,2.6373
463.50,2.6614
463.00,2.6309
462.50,2.6178
462.00,2.6699
461.50,2.7189
461.00,2.6801
460.50,2.6273
460.00,2.6310
459.50,2.6552
459.00,2.6482
458.50,2.6427
458.00,2.6818
457.50,2.6805
457.00,2.5948
456.50,2.5534
456.00,2.5922
455.50,2.6346
455.00,2.6111
454.50,2.5734
454.00,2.5779
453.50,2.5800
453.00,2.5476
452.50,2.5607
452.00,2.6741
451.50,2.7976
451.00,2.7560
450.50,2.6693
450.00,2.6559
449.50,2.6320
449.00,2.5524
448.50,2.5084
448.00,2.5434
447.50,2.5958
447.00,2.5823
446.50,2.5594
446.00,2.6133
445.50,2.6887
445.00,2.6735
444.50,2.6402
444.00,2.6871
443.50,2.7470
443.00,2.6932
442.50,2.6201
442.00,2.6155
441.50,2.6124
441.00,2.5604
440.50,2.5546
440.00,2.6725
439.50,2.8636
439.00,2.9116
438.50,2.8408
438.00,2.8290
437.50,2.7971
437.00,2.6700
436.50,2.5794
436.00,2.5869
435.50,2.6101
435.00,2.5715
434.50,2.5515
434.00,2.6235
433.50,2.7138
433.00,2.6788
432.50,2.6169
432.00,2.6530
431.50,2.7251
431.00,2.6908
430.50,2.6324
430.00,2.6622
429.50,2.7031
429.00,2.6419
428.50,2.5896
428.00,2.6642
427.50,2.8143
427.00,2.7747
426.50,2.6330
426.00,2.6055
425.50,2.6551
425.00,2.6842
424.50,2.7148
424.00,2.7943
423.50,2.8142
423.00,2.6044
422.50,2.4594
422.00,2.5063
421.50,2.6665
421.00,2.7676
420.50,2.7652
420.00,2.9313
419.50,3.5942
419.00,3.5981
418.50,3.2318
418.00,3.2193
417.50,3.0264
417.00,2.7656
416.50,2.6942
416.00,2.8132
415.50,2.9061
415.00,2.7320
414.50,2.5780
414.00,2.5595
413.50,2.5204
413.00,2.3710
412.50,2.2653
412.00,2.2833
411.50,2.3704
411.00,2.3946
410.50,2.3871
410.00,2.4732
409.50,2.5732
409.00,2.4760
408.50,2.3449
408.00,2.3240
407.50,2.3565
407.00,2.3421
406.50,2.3314
406.00,2.4191
405.50,2.5703
405.00,2.6023
404.50,2.5724
404.00,2.6889
403.50,2.8884
403.00,2.8089
402.50,2.7073
402.00,2.8324
401.50,2.9692
401.00,2.6167
400.50,2.3771
400.00,2.3494
