Created as New Dataset,Sample 015 By irlear Date Monday, July 06 2009
cm-1,A
4000.00,0.0403
3999.50,0.0402
3999.00,0.0402
3998.50,0.0402
3998.00,0.0402
3997.50,0.0402
3997.00,0.0402
3996.50,0.0402
3996.00,0.0402
3995.50,0.0402
3995.00,0.0402
3994.50,0.0402
3994.00,0.0402
3993.50,0.0402
3993.00,0.0402
3992.50,0.0402
3992.00,0.0402
3991.50,0.0402
3991.00,0.0402
3990.50,0.0402
3990.00,0.0401
3989.50,0.0401
3989.00,0.0401
3988.50,0.0401
3988.00,0.0401
3987.50,0.0401
3987.00,0.0401
3986.50,0.0401
3986.00,0.0401
3985.50,0.0400
3985.00,0.0400
3984.50,0.0400
3984.00,0.0400
3983.50,0.0400
3983.00,0.0400
3982.50,0.0400
3982.00,0.0401
3981.50,0.0401
3981.00,0.0400
3980.50,0.0400
3980.00,0.0400
3979.50,0.0400
3979.00,0.0400
3978.50,0.0400
3978.00,0.0400
3977.50,0.0400
3977.00,0.0400
3976.50,0.0400
3976.00,0.0400
3975.50,0.0400
3975.00,0.0399
3974.50,0.0399
3974.00,0.0399
3973.50,0.0399
3973.00,0.0399
3972.50,0.0399
3972.00,0.0399
3971.50,0.0399
3971.00,0.0399
3970.50,0.0399
3970.00,0.0399
3969.50,0.0399
3969.00,0.0399
3968.50,0.0398
3968.00,0.0398
3967.50,0.0398
3967.00,0.0399
3966.50,0.0399
3966.00,0.0399
3965.50,0.0399
3965.00,0.0399
3964.50,0.0398
3964.00,0.0398
3963.50,0.0398
3963.00,0.0398
3962.50,0.0398
3962.00,0.0398
3961.50,0.0398
3961.00,0.0398
3960.50,0.0398
3960.00,0.0398
3959.50,0.0398
3959.00,0.0398
3958.50,0.0398
3958.00,0.0398
3957.50,0.0398
3957.00,0.0398
3956.50,0.0398
3956.00,0.0397
3955.50,0.0397
3955.00,0.0398
3954.50,0.0398
3954.00,0.0398
3953.50,0.0398
3953.00,0.0397
3952.50,0.0397
3952.00,0.0397
3951.50,0.0397
3951.00,0.0397
3950.50,0.0397
3950.00,0.0397
3949.50,0.0397
3949.00,0.0396
3948.50,0.0396
3948.00,0.0396
3947.50,0.0396
3947.00,0.0396
3946.50,0.0396
3946.00,0.0396
3945.50,0.0396
3945.00,0.0397
3944.50,0.0397
3944.00,0.0396
3943.50,0.0396
3943.00,0.0395
3942.50,0.0395
3942.00,0.0395
3941.50,0.0395
3941.00,0.0396
3940.50,0.0396
3940.00,0.0397
3939.50,0.0397
3939.00,0.0396
3938.50,0.0396
3938.00,0.0396
3937.50,0.0396
3937.00,0.0396
3936.50,0.0396
3936.00,0.0396
3935.50,0.0396
3935.00,0.0396
3934.50,0.0396
3934.00,0.0396
3933.50,0.0396
3933.00,0.0395
3932.50,0.0395
3932.00,0.0395
3931.50,0.0394
3931.00,0.0394
3930.50,0.0394
3930.00,0.0395
3929.50,0.0395
3929.00,0.0396
3928.50,0.0395
3928.00,0.0395
3927.50,0.0396
3927.00,0.0396
3926.50,0.0396
3926.00,0.0395
3925.50,0.0395
3925.00,0.0395
3924.50,0.0394
3924.00,0.0394
3923.50,0.0394
3923.00,0.0394
3922.50,0.0395
3922.00,0.0395
3921.50,0.0395
3921.00,0.0395
3920.50,0.0395
3920.00,0.0395
3919.50,0.0395
3919.00,0.0395
3918.50,0.0395
3918.00,0.0394
3917.50,0.0395
3917.00,0.0395
3916.50,0.0395
3916.00,0.0394
3915.50,0.0394
3915.00,0.0395
3914.50,0.0396
3914.00,0.0396
3913.50,0.0396
3913.00,0.0396
3912.50,0.0396
3912.00,0.0396
3911.50,0.0396
3911.00,0.0396
3910.50,0.0396
3910.00,0.0396
3909.50,0.0396
3909.00,0.0396
3908.50,0.0396
3908.00,0.0397
3907.50,0.0396
3907.00,0.0396
3906.50,0.0396
3906.00,0.0395
3905.50,0.0394
3905.00,0.0393
3904.50,0.0393
3904.00,0.0395
3903.50,0.0396
3903.00,0.0395
3902.50,0.0393
3902.00,0.0393
3901.50,0.0395
3901.00,0.0395
3900.50,0.0394
3900.00,0.0392
3899.50,0.0393
3899.00,0.0395
3898.50,0.0395
3898.00,0.0394
3897.50,0.0395
3897.00,0.0396
3896.50,0.0397
3896.00,0.0397
3895.50,0.0397
3895.00,0.0397
3894.50,0.0397
3894.00,0.0396
3893.50,0.0396
3893.00,0.0396
3892.50,0.0395
3892.00,0.0394
3891.50,0.0394
3891.00,0.0395
3890.50,0.0396
3890.00,0.0397
3889.50,0.0397
3889.00,0.0397
3888.50,0.0397
3888.00,0.0398
3887.50,0.0397
3887.00,0.0396
3886.50,0.0394
3886.00,0.0394
3885.50,0.0394
3885.00,0.0395
3884.50,0.0395
3884.00,0.0395
3883.50,0.0395
3883.00,0.0396
3882.50,0.0397
3882.00,0.0396
3881.50,0.0395
3881.00,0.0395
3880.50,0.0395
3880.00,0.0395
3879.50,0.0395
3879.00,0.0396
3878.50,0.0396
3878.00,0.0397
3877.50,0.0398
3877.00,0.0398
3876.50,0.0398
3876.00,0.0398
3875.50,0.0397
3875.00,0.0397
3874.50,0.0397
3874.00,0.0397
3873.50,0.0396
3873.00,0.0396
3872.50,0.0396
3872.00,0.0396
3871.50,0.0397
3871.00,0.0396
3870.50,0.0396
3870.00,0.0396
3869.50,0.0397
3869.00,0.0397
3868.50,0.0397
3868.00,0.0397
3867.50,0.0397
3867.00,0.0398
3866.50,0.0398
3866.00,0.0397
3865.50,0.0397
3865.00,0.0398
3864.50,0.0398
3864.00,0.0398
3863.50,0.0397
3863.00,0.0397
3862.50,0.0397
3862.00,0.0398
3861.50,0.0399
3861.00,0.0399
3860.50,0.0400
3860.00,0.0400
3859.50,0.0400
3859.00,0.0401
3858.50,0.0401
3858.00,0.0400
3857.50,0.0400
3857.00,0.0400
3856.50,0.0400
3856.00,0.0399
3855.50,0.0396
3855.00,0.0396
3854.50,0.0401
3854.00,0.0408
3853.50,0.0407
3853.00,0.0403
3852.50,0.0399
3852.00,0.0400
3851.50,0.0403
3851.00,0.0405
3850.50,0.0404
3850.00,0.0403
3849.50,0.0404
3849.00,0.0405
3848.50,0.0405
3848.00,0.0405
3847.50,0.0405
3847.00,0.0406
3846.50,0.0406
3846.00,0.0406
3845.50,0.0407
3845.00,0.0407
3844.50,0.0407
3844.00,0.0407
3843.50,0.0408
3843.00,0.0409
3842.50,0.0409
3842.00,0.0408
3841.50,0.0409
3841.00,0.0409
3840.50,0.0410
3840.00,0.0410
3839.50,0.0409
3839.00,0.0407
3838.50,0.0407
3838.00,0.0409
3837.50,0.0412
3837.00,0.0413
3836.50,0.0412
3836.00,0.0410
3835.50,0.0410
3835.00,0.0412
3834.50,0.0414
3834.00,0.0415
3833.50,0.0414
3833.00,0.0414
3832.50,0.0414
3832.00,0.0415
3831.50,0.0416
3831.00,0.0416
3830.50,0.0416
3830.00,0.0415
3829.50,0.0416
3829.00,0.0417
3828.50,0.0417
3828.00,0.0417
3827.50,0.0416
3827.00,0.0416
3826.50,0.0417
3826.00,0.0417
3825.50,0.0417
3825.00,0.0417
3824.50,0.0417
3824.00,0.0418
3823.50,0.0418
3823.00,0.0417
3822.50,0.0417
3822.00,0.0418
3821.50,0.0418
3821.00,0.0416
3820.50,0.0415
3820.00,0.0415
3819.50,0.0416
3819.00,0.0416
3818.50,0.0417
3818.00,0.0418
3817.50,0.0418
3817.00,0.0417
3816.50,0.0417
3816.00,0.0419
3815.50,0.0420
3815.00,0.0420
3814.50,0.0419
3814.00,0.0419
3813.50,0.0420
3813.00,0.0421
3812.50,0.0421
3812.00,0.0422
3811.50,0.0422
3811.00,0.0422
3810.50,0.0422
3810.00,0.0422
3809.50,0.0422
3809.00,0.0423
3808.50,0.0422
3808.00,0.0421
3807.50,0.0422
3807.00,0.0424
3806.50,0.0425
3806.00,0.0425
3805.50,0.0424
3805.00,0.0424
3804.50,0.0424
3804.00,0.0425
3803.50,0.0425
3803.00,0.0425
3802.50,0.0424
3802.00,0.0423
3801.50,0.0424
3801.00,0.0425
3800.50,0.0426
3800.00,0.0426
3799.50,0.0425
3799.00,0.0426
3798.50,0.0427
3798.00,0.0428
3797.50,0.0428
3797.00,0.0428
3796.50,0.0428
3796.00,0.0429
3795.50,0.0429
3795.00,0.0429
3794.50,0.0430
3794.00,0.0431
3793.50,0.0432
3793.00,0.0432
3792.50,0.0433
3792.00,0.0433
3791.50,0.0434
3791.00,0.0434
3790.50,0.0435
3790.00,0.0435
3789.50,0.0436
3789.00,0.0437
3788.50,0.0438
3788.00,0.0438
3787.50,0.0439
3787.00,0.0440
3786.50,0.0440
3786.00,0.0441
3785.50,0.0441
3785.00,0.0442
3784.50,0.0442
3784.00,0.0443
3783.50,0.0443
3783.00,0.0444
3782.50,0.0445
3782.00,0.0446
3781.50,0.0447
3781.00,0.0447
3780.50,0.0446
3780.00,0.0446
3779.50,0.0446
3779.00,0.0447
3778.50,0.0448
3778.00,0.0449
3777.50,0.0450
3777.00,0.0452
3776.50,0.0453
3776.00,0.0453
3775.50,0.0454
3775.00,0.0455
3774.50,0.0455
3774.00,0.0456
3773.50,0.0456
3773.00,0.0456
3772.50,0.0457
3772.00,0.0457
3771.50,0.0457
3771.00,0.0457
3770.50,0.0457
3770.00,0.0458
3769.50,0.0458
3769.00,0.0459
3768.50,0.0459
3768.00,0.0459
3767.50,0.0460
3767.00,0.0460
3766.50,0.0460
3766.00,0.0460
3765.50,0.0460
3765.00,0.0460
3764.50,0.0460
3764.00,0.0461
3763.50,0.0461
3763.00,0.0462
3762.50,0.0462
3762.00,0.0462
3761.50,0.0463
3761.00,0.0463
3760.50,0.0462
3760.00,0.0462
3759.50,0.0461
3759.00,0.0461
3758.50,0.0460
3758.00,0.0460
3757.50,0.0461
3757.00,0.0461
3756.50,0.0462
3756.00,0.0462
3755.50,0.0461
3755.00,0.0461
3754.50,0.0461
3754.00,0.0461
3753.50,0.0461
3753.00,0.0460
3752.50,0.0460
3752.00,0.0461
3751.50,0.0461
3751.00,0.0459
3750.50,0.0456
3750.00,0.0455
3749.50,0.0457
3749.00,0.0459
3748.50,0.0459
3748.00,0.0457
3747.50,0.0455
3747.00,0.0455
3746.50,0.0455
3746.00,0.0453
3745.50,0.0452
3745.00,0.0453
3744.50,0.0453
3744.00,0.0452
3743.50,0.0453
3743.00,0.0452
3742.50,0.0451
3742.00,0.0451
3741.50,0.0451
3741.00,0.0451
3740.50,0.0451
3740.00,0.0449
3739.50,0.0448
3739.00,0.0448
3738.50,0.0448
3738.00,0.0447
3737.50,0.0446
3737.00,0.0446
3736.50,0.0446
3736.00,0.0445
3735.50,0.0444
3735.00,0.0443
3734.50,0.0444
3734.00,0.0446
3733.50,0.0447
3733.00,0.0447
3732.50,0.0449
3732.00,0.0452
3731.50,0.0453
3731.00,0.0453
3730.50,0.0452
3730.00,0.0453
3729.50,0.0454
3729.00,0.0455
3728.50,0.0455
3728.00,0.0456
3727.50,0.0456
3727.00,0.0456
3726.50,0.0457
3726.00,0.0457
3725.50,0.0457
3725.00,0.0458
3724.50,0.0459
3724.00,0.0460
3723.50,0.0461
3723.00,0.0462
3722.50,0.0462
3722.00,0.0463
3721.50,0.0464
3721.00,0.0465
3720.50,0.0466
3720.00,0.0467
3719.50,0.0468
3719.00,0.0469
3718.50,0.0470
3718.00,0.0471
3717.50,0.0472
3717.00,0.0473
3716.50,0.0474
3716.00,0.0475
3715.50,0.0475
3715.00,0.0476
3714.50,0.0477
3714.00,0.0478
3713.50,0.0478
3713.00,0.0478
3712.50,0.0480
3712.00,0.0481
3711.50,0.0481
3711.00,0.0481
3710.50,0.0481
3710.00,0.0482
3709.50,0.0484
3709.00,0.0486
3708.50,0.0488
3708.00,0.0488
3707.50,0.0490
3707.00,0.0491
3706.50,0.0492
3706.00,0.0493
3705.50,0.0494
3705.00,0.0494
3704.50,0.0495
3704.00,0.0496
3703.50,0.0497
3703.00,0.0497
3702.50,0.0497
3702.00,0.0497
3701.50,0.0497
3701.00,0.0497
3700.50,0.0497
3700.00,0.0497
3699.50,0.0498
3699.00,0.0498
3698.50,0.0498
3698.00,0.0498
3697.50,0.0497
3697.00,0.0497
3696.50,0.0496
3696.00,0.0495
3695.50,0.0495
3695.00,0.0494
3694.50,0.0494
3694.00,0.0493
3693.50,0.0493
3693.00,0.0492
3692.50,0.0491
3692.00,0.0490
3691.50,0.0488
3691.00,0.0487
3690.50,0.0486
3690.00,0.0484
3689.50,0.0481
3689.00,0.0480
3688.50,0.0482
3688.00,0.0483
3687.50,0.0483
3687.00,0.0482
3686.50,0.0481
3686.00,0.0481
3685.50,0.0481
3685.00,0.0481
3684.50,0.0480
3684.00,0.0480
3683.50,0.0480
3683.00,0.0479
3682.50,0.0479
3682.00,0.0479
3681.50,0.0479
3681.00,0.0478
3680.50,0.0477
3680.00,0.0477
3679.50,0.0476
3679.00,0.0476
3678.50,0.0475
3678.00,0.0475
3677.50,0.0475
3677.00,0.0475
3676.50,0.0476
3676.00,0.0476
3675.50,0.0474
3675.00,0.0472
3674.50,0.0472
3674.00,0.0473
3673.50,0.0475
3673.00,0.0476
3672.50,0.0477
3672.00,0.0477
3671.50,0.0477
3671.00,0.0479
3670.50,0.0480
3670.00,0.0479
3669.50,0.0477
3669.00,0.0476
3668.50,0.0477
3668.00,0.0479
3667.50,0.0480
3667.00,0.0481
3666.50,0.0482
3666.00,0.0483
3665.50,0.0484
3665.00,0.0484
3664.50,0.0485
3664.00,0.0485
3663.50,0.0486
3663.00,0.0486
3662.50,0.0487
3662.00,0.0487
3661.50,0.0487
3661.00,0.0487
3660.50,0.0488
3660.00,0.0489
3659.50,0.0489
3659.00,0.0490
3658.50,0.0491
3658.00,0.0492
3657.50,0.0492
3657.00,0.0493
3656.50,0.0494
3656.00,0.0495
3655.50,0.0496
3655.00,0.0497
3654.50,0.0497
3654.00,0.0498
3653.50,0.0499
3653.00,0.0500
3652.50,0.0499
3652.00,0.0498
3651.50,0.0498
3651.00,0.0498
3650.50,0.0496
3650.00,0.0495
3649.50,0.0497
3649.00,0.0500
3648.50,0.0501
3648.00,0.0501
3647.50,0.0500
3647.00,0.0500
3646.50,0.0501
3646.00,0.0502
3645.50,0.0503
3645.00,0.0504
3644.50,0.0506
3644.00,0.0506
3643.50,0.0506
3643.00,0.0506
3642.50,0.0506
3642.00,0.0506
3641.50,0.0506
3641.00,0.0506
3640.50,0.0506
3640.00,0.0506
3639.50,0.0506
3639.00,0.0505
3638.50,0.0505
3638.00,0.0504
3637.50,0.0504
3637.00,0.0503
3636.50,0.0503
3636.00,0.0503
3635.50,0.0502
3635.00,0.0502
3634.50,0.0501
3634.00,0.0500
3633.50,0.0499
3633.00,0.0499
3632.50,0.0498
3632.00,0.0498
3631.50,0.0498
3631.00,0.0497
3630.50,0.0496
3630.00,0.0496
3629.50,0.0495
3629.00,0.0493
3628.50,0.0490
3628.00,0.0490
3627.50,0.0492
3627.00,0.0492
3626.50,0.0492
3626.00,0.0492
3625.50,0.0492
3625.00,0.0492
3624.50,0.0492
3624.00,0.0492
3623.50,0.0493
3623.00,0.0492
3622.50,0.0491
3622.00,0.0491
3621.50,0.0491
3621.00,0.0490
3620.50,0.0490
3620.00,0.0490
3619.50,0.0491
3619.00,0.0491
3618.50,0.0490
3618.00,0.0488
3617.50,0.0488
3617.00,0.0489
3616.50,0.0489
3616.00,0.0489
3615.50,0.0489
3615.00,0.0490
3614.50,0.0490
3614.00,0.0489
3613.50,0.0488
3613.00,0.0488
3612.50,0.0489
3612.00,0.0489
3611.50,0.0490
3611.00,0.0490
3610.50,0.0490
3610.00,0.0490
3609.50,0.0491
3609.00,0.0491
3608.50,0.0491
3608.00,0.0490
3607.50,0.0489
3607.00,0.0489
3606.50,0.0490
3606.00,0.0490
3605.50,0.0490
3605.00,0.0491
3604.50,0.0492
3604.00,0.0493
3603.50,0.0493
3603.00,0.0493
3602.50,0.0493
3602.00,0.0493
3601.50,0.0492
3601.00,0.0492
3600.50,0.0492
3600.00,0.0492
3599.50,0.0492
3599.00,0.0492
3598.50,0.0493
3598.00,0.0494
3597.50,0.0494
3597.00,0.0494
3596.50,0.0494
3596.00,0.0494
3595.50,0.0494
3595.00,0.0494
3594.50,0.0493
3594.00,0.0493
3593.50,0.0493
3593.00,0.0494
3592.50,0.0494
3592.00,0.0494
3591.50,0.0495
3591.00,0.0495
3590.50,0.0496
3590.00,0.0495
3589.50,0.0495
3589.00,0.0494
3588.50,0.0494
3588.00,0.0493
3587.50,0.0491
3587.00,0.0489
3586.50,0.0488
3586.00,0.0488
3585.50,0.0489
3585.00,0.0490
3584.50,0.0491
3584.00,0.0492
3583.50,0.0492
3583.00,0.0491
3582.50,0.0491
3582.00,0.0491
3581.50,0.0491
3581.00,0.0491
3580.50,0.0491
3580.00,0.0491
3579.50,0.0490
3579.00,0.0490
3578.50,0.0490
3578.00,0.0490
3577.50,0.0490
3577.00,0.0489
3576.50,0.0489
3576.00,0.0489
3575.50,0.0488
3575.00,0.0488
3574.50,0.0488
3574.00,0.0488
3573.50,0.0487
3573.00,0.0487
3572.50,0.0487
3572.00,0.0486
3571.50,0.0486
3571.00,0.0485
3570.50,0.0485
3570.00,0.0484
3569.50,0.0484
3569.00,0.0483
3568.50,0.0483
3568.00,0.0482
3567.50,0.0481
3567.00,0.0479
3566.50,0.0478
3566.00,0.0478
3565.50,0.0478
3565.00,0.0479
3564.50,0.0479
3564.00,0.0480
3563.50,0.0481
3563.00,0.0480
3562.50,0.0480
3562.00,0.0479
3561.50,0.0479
3561.00,0.0479
3560.50,0.0479
3560.00,0.0479
3559.50,0.0479
3559.00,0.0479
3558.50,0.0479
3558.00,0.0479
3557.50,0.0479
3557.00,0.0479
3556.50,0.0479
3556.00,0.0479
3555.50,0.0479
3555.00,0.0479
3554.50,0.0479
3554.00,0.0478
3553.50,0.0478
3553.00,0.0477
3552.50,0.0477
3552.00,0.0476
3551.50,0.0476
3551.00,0.0476
3550.50,0.0476
3550.00,0.0477
3549.50,0.0477
3549.00,0.0477
3548.50,0.0477
3548.00,0.0476
3547.50,0.0475
3547.00,0.0474
3546.50,0.0473
3546.00,0.0473
3545.50,0.0472
3545.00,0.0473
3544.50,0.0473
3544.00,0.0473
3543.50,0.0473
3543.00,0.0474
3542.50,0.0474
3542.00,0.0475
3541.50,0.0475
3541.00,0.0476
3540.50,0.0476
3540.00,0.0476
3539.50,0.0476
3539.00,0.0476
3538.50,0.0476
3538.00,0.0475
3537.50,0.0475
3537.00,0.0474
3536.50,0.0474
3536.00,0.0474
3535.50,0.0474
3535.00,0.0475
3534.50,0.0475
3534.00,0.0476
3533.50,0.0476
3533.00,0.0476
3532.50,0.0476
3532.00,0.0476
3531.50,0.0475
3531.00,0.0475
3530.50,0.0475
3530.00,0.0475
3529.50,0.0475
3529.00,0.0475
3528.50,0.0474
3528.00,0.0474
3527.50,0.0474
3527.00,0.0474
3526.50,0.0474
3526.00,0.0474
3525.50,0.0473
3525.00,0.0473
3524.50,0.0472
3524.00,0.0472
3523.50,0.0472
3523.00,0.0472
3522.50,0.0472
3522.00,0.0472
3521.50,0.0473
3521.00,0.0473
3520.50,0.0473
3520.00,0.0473
3519.50,0.0473
3519.00,0.0473
3518.50,0.0473
3518.00,0.0473
3517.50,0.0472
3517.00,0.0472
3516.50,0.0472
3516.00,0.0472
3515.50,0.0472
3515.00,0.0471
3514.50,0.0471
3514.00,0.0470
3513.50,0.0470
3513.00,0.0470
3512.50,0.0470
3512.00,0.0471
3511.50,0.0471
3511.00,0.0471
3510.50,0.0470
3510.00,0.0470
3509.50,0.0470
3509.00,0.0470
3508.50,0.0470
3508.00,0.0470
3507.50,0.0470
3507.00,0.0470
3506.50,0.0470
3506.00,0.0469
3505.50,0.0469
3505.00,0.0469
3504.50,0.0468
3504.00,0.0467
3503.50,0.0466
3503.00,0.0466
3502.50,0.0465
3502.00,0.0466
3501.50,0.0466
3501.00,0.0467
3500.50,0.0467
3500.00,0.0467
3499.50,0.0467
3499.00,0.0466
3498.50,0.0466
3498.00,0.0466
3497.50,0.0465
3497.00,0.0465
3496.50,0.0465
3496.00,0.0465
3495.50,0.0465
3495.00,0.0465
3494.50,0.0465
3494.00,0.0465
3493.50,0.0465
3493.00,0.0465
3492.50,0.0465
3492.00,0.0465
3491.50,0.0465
3491.00,0.0465
3490.50,0.0464
3490.00,0.0464
3489.50,0.0464
3489.00,0.0464
3488.50,0.0463
3488.00,0.0463
3487.50,0.0462
3487.00,0.0462
3486.50,0.0462
3486.00,0.0462
3485.50,0.0462
3485.00,0.0463
3484.50,0.0463
3484.00,0.0463
3483.50,0.0462
3483.00,0.0462
3482.50,0.0462
3482.00,0.0461
3481.50,0.0460
3481.00,0.0460
3480.50,0.0459
3480.00,0.0459
3479.50,0.0459
3479.00,0.0459
3478.50,0.0460
3478.00,0.0460
3477.50,0.0460
3477.00,0.0460
3476.50,0.0460
3476.00,0.0460
3475.50,0.0460
3475.00,0.0459
3474.50,0.0459
3474.00,0.0459
3473.50,0.0459
3473.00,0.0459
3472.50,0.0459
3472.00,0.0458
3471.50,0.0458
3471.00,0.0457
3470.50,0.0457
3470.00,0.0456
3469.50,0.0455
3469.00,0.0455
3468.50,0.0455
3468.00,0.0455
3467.50,0.0455
3467.00,0.0455
3466.50,0.0455
3466.00,0.0455
3465.50,0.0455
3465.00,0.0455
3464.50,0.0456
3464.00,0.0456
3463.50,0.0456
3463.00,0.0455
3462.50,0.0455
3462.00,0.0454
3461.50,0.0454
3461.00,0.0453
3460.50,0.0453
3460.00,0.0453
3459.50,0.0453
3459.00,0.0453
3458.50,0.0454
3458.00,0.0454
3457.50,0.0454
3457.00,0.0453
3456.50,0.0453
3456.00,0.0453
3455.50,0.0453
3455.00,0.0453
3454.50,0.0452
3454.00,0.0452
3453.50,0.0452
3453.00,0.0452
3452.50,0.0452
3452.00,0.0452
3451.50,0.0451
3451.00,0.0451
3450.50,0.0451
3450.00,0.0451
3449.50,0.0451
3449.00,0.0450
3448.50,0.0450
3448.00,0.0449
3447.50,0.0449
3447.00,0.0448
3446.50,0.0448
3446.00,0.0448
3445.50,0.0448
3445.00,0.0449
3444.50,0.0449
3444.00,0.0448
3443.50,0.0448
3443.00,0.0448
3442.50,0.0448
3442.00,0.0447
3441.50,0.0447
3441.00,0.0447
3440.50,0.0447
3440.00,0.0447
3439.50,0.0447
3439.00,0.0446
3438.50,0.0445
3438.00,0.0445
3437.50,0.0444
3437.00,0.0444
3436.50,0.0444
3436.00,0.0443
3435.50,0.0443
3435.00,0.0443
3434.50,0.0443
3434.00,0.0444
3433.50,0.0444
3433.00,0.0444
3432.50,0.0444
3432.00,0.0443
3431.50,0.0443
3431.00,0.0442
3430.50,0.0442
3430.00,0.0442
3429.50,0.0442
3429.00,0.0442
3428.50,0.0442
3428.00,0.0442
3427.50,0.0443
3427.00,0.0443
3426.50,0.0443
3426.00,0.0443
3425.50,0.0442
3425.00,0.0442
3424.50,0.0442
3424.00,0.0442
3423.50,0.0442
3423.00,0.0442
3422.50,0.0442
3422.00,0.0441
3421.50,0.0441
3421.00,0.0440
3420.50,0.0440
3420.00,0.0440
3419.50,0.0440
3419.00,0.0441
3418.50,0.0441
3418.00,0.0441
3417.50,0.0441
3417.00,0.0441
3416.50,0.0440
3416.00,0.0440
3415.50,0.0440
3415.00,0.0439
3414.50,0.0439
3414.00,0.0439
3413.50,0.0438
3413.00,0.0438
3412.50,0.0438
3412.00,0.0438
3411.50,0.0438
3411.00,0.0438
3410.50,0.0438
3410.00,0.0438
3409.50,0.0437
3409.00,0.0437
3408.50,0.0437
3408.00,0.0438
3407.50,0.0438
3407.00,0.0438
3406.50,0.0438
3406.00,0.0437
3405.50,0.0437
3405.00,0.0437
3404.50,0.0437
3404.00,0.0437
3403.50,0.0436
3403.00,0.0436
3402.50,0.0435
3402.00,0.0434
3401.50,0.0434
3401.00,0.0434
3400.50,0.0434
3400.00,0.0434
3399.50,0.0434
3399.00,0.0434
3398.50,0.0435
3398.00,0.0435
3397.50,0.0435
3397.00,0.0435
3396.50,0.0435
3396.00,0.0435
3395.50,0.0435
3395.00,0.0434
3394.50,0.0434
3394.00,0.0434
3393.50,0.0434
3393.00,0.0433
3392.50,0.0432
3392.00,0.0432
3391.50,0.0432
3391.00,0.0433
3390.50,0.0433
3390.00,0.0434
3389.50,0.0434
3389.00,0.0434
3388.50,0.0434
3388.00,0.0434
3387.50,0.0434
3387.00,0.0434
3386.50,0.0434
3386.00,0.0434
3385.50,0.0434
3385.00,0.0434
3384.50,0.0434
3384.00,0.0434
3383.50,0.0434
3383.00,0.0434
3382.50,0.0434
3382.00,0.0433
3381.50,0.0433
3381.00,0.0433
3380.50,0.0433
3380.00,0.0433
3379.50,0.0433
3379.00,0.0433
3378.50,0.0433
3378.00,0.0433
3377.50,0.0432
3377.00,0.0432
3376.50,0.0432
3376.00,0.0432
3375.50,0.0432
3375.00,0.0433
3374.50,0.0433
3374.00,0.0432
3373.50,0.0432
3373.00,0.0432
3372.50,0.0432
3372.00,0.0432
3371.50,0.0431
3371.00,0.0431
3370.50,0.0430
3370.00,0.0430
3369.50,0.0430
3369.00,0.0430
3368.50,0.0430
3368.00,0.0430
3367.50,0.0430
3367.00,0.0430
3366.50,0.0430
3366.00,0.0431
3365.50,0.0431
3365.00,0.0432
3364.50,0.0432
3364.00,0.0432
3363.50,0.0432
3363.00,0.0432
3362.50,0.0432
3362.00,0.0432
3361.50,0.0432
3361.00,0.0431
3360.50,0.0431
3360.00,0.0431
3359.50,0.0432
3359.00,0.0432
3358.50,0.0432
3358.00,0.0432
3357.50,0.0432
3357.00,0.0432
3356.50,0.0432
3356.00,0.0432
3355.50,0.0432
3355.00,0.0432
3354.50,0.0432
3354.00,0.0432
3353.50,0.0432
3353.00,0.0432
3352.50,0.0431
3352.00,0.0431
3351.50,0.0430
3351.00,0.0430
3350.50,0.0430
3350.00,0.0430
3349.50,0.0431
3349.00,0.0431
3348.50,0.0431
3348.00,0.0431
3347.50,0.0432
3347.00,0.0432
3346.50,0.0432
3346.00,0.0431
3345.50,0.0431
3345.00,0.0431
3344.50,0.0431
3344.00,0.0430
3343.50,0.0430
3343.00,0.0430
3342.50,0.0430
3342.00,0.0430
3341.50,0.0431
3341.00,0.0431
3340.50,0.0430
3340.00,0.0430
3339.50,0.0429
3339.00,0.0429
3338.50,0.0429
3338.00,0.0429
3337.50,0.0429
3337.00,0.0430
3336.50,0.0430
3336.00,0.0430
3335.50,0.0430
3335.00,0.0430
3334.50,0.0431
3334.00,0.0431
3333.50,0.0431
3333.00,0.0431
3332.50,0.0431
3332.00,0.0431
3331.50,0.0431
3331.00,0.0430
3330.50,0.0430
3330.00,0.0430
3329.50,0.0430
3329.00,0.0430
3328.50,0.0430
3328.00,0.0430
3327.50,0.0429
3327.00,0.0429
3326.50,0.0428
3326.00,0.0428
3325.50,0.0428
3325.00,0.0428
3324.50,0.0429
3324.00,0.0429
3323.50,0.0429
3323.00,0.0429
3322.50,0.0429
3322.00,0.0429
3321.50,0.0429
3321.00,0.0429
3320.50,0.0429
3320.00,0.0429
3319.50,0.0429
3319.00,0.0429
3318.50,0.0429
3318.00,0.0429
3317.50,0.0429
3317.00,0.0429
3316.50,0.0429
3316.00,0.0428
3315.50,0.0428
3315.00,0.0428
3314.50,0.0428
3314.00,0.0428
3313.50,0.0428
3313.00,0.0428
3312.50,0.0428
3312.00,0.0428
3311.50,0.0428
3311.00,0.0427
3310.50,0.0427
3310.00,0.0426
3309.50,0.0426
3309.00,0.0425
3308.50,0.0425
3308.00,0.0425
3307.50,0.0425
3307.00,0.0425
3306.50,0.0425
3306.00,0.0425
3305.50,0.0425
3305.00,0.0425
3304.50,0.0426
3304.00,0.0426
3303.50,0.0427
3303.00,0.0427
3302.50,0.0427
3302.00,0.0427
3301.50,0.0427
3301.00,0.0428
3300.50,0.0428
3300.00,0.0428
3299.50,0.0427
3299.00,0.0427
3298.50,0.0427
3298.00,0.0427
3297.50,0.0426
3297.00,0.0426
3296.50,0.0426
3296.00,0.0425
3295.50,0.0426
3295.00,0.0426
3294.50,0.0426
3294.00,0.0426
3293.50,0.0426
3293.00,0.0425
3292.50,0.0425
3292.00,0.0425
3291.50,0.0425
3291.00,0.0426
3290.50,0.0426
3290.00,0.0426
3289.50,0.0427
3289.00,0.0427
3288.50,0.0427
3288.00,0.0427
3287.50,0.0427
3287.00,0.0427
3286.50,0.0427
3286.00,0.0427
3285.50,0.0427
3285.00,0.0427
3284.50,0.0427
3284.00,0.0427
3283.50,0.0427
3283.00,0.0427
3282.50,0.0427
3282.00,0.0427
3281.50,0.0427
3281.00,0.0427
3280.50,0.0427
3280.00,0.0427
3279.50,0.0427
3279.00,0.0427
3278.50,0.0427
3278.00,0.0427
3277.50,0.0427
3277.00,0.0426
3276.50,0.0426
3276.00,0.0426
3275.50,0.0426
3275.00,0.0426
3274.50,0.0426
3274.00,0.0426
3273.50,0.0426
3273.00,0.0425
3272.50,0.0425
3272.00,0.0425
3271.50,0.0425
3271.00,0.0425
3270.50,0.0425
3270.00,0.0425
3269.50,0.0426
3269.00,0.0426
3268.50,0.0426
3268.00,0.0427
3267.50,0.0427
3267.00,0.0427
3266.50,0.0427
3266.00,0.0427
3265.50,0.0427
3265.00,0.0427
3264.50,0.0427
3264.00,0.0427
3263.50,0.0427
3263.00,0.0427
3262.50,0.0427
3262.00,0.0427
3261.50,0.0427
3261.00,0.0427
3260.50,0.0427
3260.00,0.0427
3259.50,0.0427
3259.00,0.0427
3258.50,0.0427
3258.00,0.0427
3257.50,0.0427
3257.00,0.0426
3256.50,0.0426
3256.00,0.0426
3255.50,0.0426
3255.00,0.0426
3254.50,0.0427
3254.00,0.0427
3253.50,0.0427
3253.00,0.0427
3252.50,0.0427
3252.00,0.0427
3251.50,0.0427
3251.00,0.0427
3250.50,0.0428
3250.00,0.0427
3249.50,0.0427
3249.00,0.0427
3248.50,0.0427
3248.00,0.0426
3247.50,0.0426
3247.00,0.0426
3246.50,0.0426
3246.00,0.0427
3245.50,0.0427
3245.00,0.0427
3244.50,0.0427
3244.00,0.0428
3243.50,0.0428
3243.00,0.0428
3242.50,0.0428
3242.00,0.0428
3241.50,0.0428
3241.00,0.0428
3240.50,0.0428
3240.00,0.0428
3239.50,0.0429
3239.00,0.0429
3238.50,0.0429
3238.00,0.0429
3237.50,0.0429
3237.00,0.0429
3236.50,0.0428
3236.00,0.0428
3235.50,0.0428
3235.00,0.0427
3234.50,0.0427
3234.00,0.0427
3233.50,0.0427
3233.00,0.0427
3232.50,0.0427
3232.00,0.0428
3231.50,0.0429
3231.00,0.0429
3230.50,0.0429
3230.00,0.0429
3229.50,0.0429
3229.00,0.0429
3228.50,0.0430
3228.00,0.0430
3227.50,0.0430
3227.00,0.0430
3226.50,0.0430
3226.00,0.0430
3225.50,0.0430
3225.00,0.0430
3224.50,0.0430
3224.00,0.0430
3223.50,0.0430
3223.00,0.0430
3222.50,0.0430
3222.00,0.0430
3221.50,0.0430
3221.00,0.0430
3220.50,0.0430
3220.00,0.0430
3219.50,0.0430
3219.00,0.0430
3218.50,0.0430
3218.00,0.0431
3217.50,0.0431
3217.00,0.0431
3216.50,0.0431
3216.00,0.0431
3215.50,0.0431
3215.00,0.0431
3214.50,0.0431
3214.00,0.0431
3213.50,0.0431
3213.00,0.0432
3212.50,0.0432
3212.00,0.0432
3211.50,0.0432
3211.00,0.0432
3210.50,0.0432
3210.00,0.0432
3209.50,0.0432
3209.00,0.0432
3208.50,0.0432
3208.00,0.0433
3207.50,0.0433
3207.00,0.0433
3206.50,0.0433
3206.00,0.0433
3205.50,0.0433
3205.00,0.0433
3204.50,0.0433
3204.00,0.0433
3203.50,0.0433
3203.00,0.0434
3202.50,0.0434
3202.00,0.0434
3201.50,0.0434
3201.00,0.0434
3200.50,0.0434
3200.00,0.0434
3199.50,0.0434
3199.00,0.0434
3198.50,0.0435
3198.00,0.0435
3197.50,0.0435
3197.00,0.0435
3196.50,0.0435
3196.00,0.0435
3195.50,0.0436
3195.00,0.0436
3194.50,0.0436
3194.00,0.0436
3193.50,0.0436
3193.00,0.0436
3192.50,0.0437
3192.00,0.0437
3191.50,0.0437
3191.00,0.0438
3190.50,0.0438
3190.00,0.0438
3189.50,0.0438
3189.00,0.0438
3188.50,0.0439
3188.00,0.0439
3187.50,0.0439
3187.00,0.0439
3186.50,0.0440
3186.00,0.0440
3185.50,0.0440
3185.00,0.0440
3184.50,0.0440
3184.00,0.0440
3183.50,0.0440
3183.00,0.0440
3182.50,0.0440
3182.00,0.0440
3181.50,0.0440
3181.00,0.0440
3180.50,0.0440
3180.00,0.0440
3179.50,0.0440
3179.00,0.0440
3178.50,0.0440
3178.00,0.0440
3177.50,0.0440
3177.00,0.0440
3176.50,0.0440
3176.00,0.0440
3175.50,0.0440
3175.00,0.0440
3174.50,0.0440
3174.00,0.0440
3173.50,0.0440
3173.00,0.0440
3172.50,0.0441
3172.00,0.0441
3171.50,0.0441
3171.00,0.0441
3170.50,0.0441
3170.00,0.0441
3169.50,0.0441
3169.00,0.0442
3168.50,0.0442
3168.00,0.0442
3167.50,0.0442
3167.00,0.0442
3166.50,0.0442
3166.00,0.0443
3165.50,0.0443
3165.00,0.0443
3164.50,0.0443
3164.00,0.0444
3163.50,0.0444
3163.00,0.0444
3162.50,0.0444
3162.00,0.0444
3161.50,0.0445
3161.00,0.0445
3160.50,0.0445
3160.00,0.0446
3159.50,0.0446
3159.00,0.0446
3158.50,0.0446
3158.00,0.0447
3157.50,0.0447
3157.00,0.0447
3156.50,0.0447
3156.00,0.0447
3155.50,0.0448
3155.00,0.0448
3154.50,0.0448
3154.00,0.0448
3153.50,0.0447
3153.00,0.0447
3152.50,0.0448
3152.00,0.0448
3151.50,0.0449
3151.00,0.0450
3150.50,0.0451
3150.00,0.0451
3149.50,0.0452
3149.00,0.0452
3148.50,0.0453
3148.00,0.0453
3147.50,0.0454
3147.00,0.0454
3146.50,0.0454
3146.00,0.0455
3145.50,0.0455
3145.00,0.0456
3144.50,0.0456
3144.00,0.0456
3143.50,0.0457
3143.00,0.0457
3142.50,0.0458
3142.00,0.0458
3141.50,0.0458
3141.00,0.0458
3140.50,0.0458
3140.00,0.0458
3139.50,0.0459
3139.00,0.0459
3138.50,0.0460
3138.00,0.0461
3137.50,0.0462
3137.00,0.0463
3136.50,0.0464
3136.00,0.0465
3135.50,0.0466
3135.00,0.0466
3134.50,0.0467
3134.00,0.0468
3133.50,0.0468
3133.00,0.0469
3132.50,0.0469
3132.00,0.0470
3131.50,0.0470
3131.00,0.0471
3130.50,0.0471
3130.00,0.0472
3129.50,0.0472
3129.00,0.0473
3128.50,0.0474
3128.00,0.0475
3127.50,0.0476
3127.00,0.0477
3126.50,0.0477
3126.00,0.0478
3125.50,0.0479
3125.00,0.0479
3124.50,0.0480
3124.00,0.0481
3123.50,0.0481
3123.00,0.0481
3122.50,0.0481
3122.00,0.0481
3121.50,0.0481
3121.00,0.0481
3120.50,0.0482
3120.00,0.0483
3119.50,0.0483
3119.00,0.0484
3118.50,0.0484
3118.00,0.0485
3117.50,0.0485
3117.00,0.0485
3116.50,0.0486
3116.00,0.0486
3115.50,0.0487
3115.00,0.0487
3114.50,0.0488
3114.00,0.0489
3113.50,0.0490
3113.00,0.0490
3112.50,0.0491
3112.00,0.0491
3111.50,0.0491
3111.00,0.0491
3110.50,0.0491
3110.00,0.0491
3109.50,0.0491
3109.00,0.0491
3108.50,0.0491
3108.00,0.0492
3107.50,0.0492
3107.00,0.0493
3106.50,0.0493
3106.00,0.0494
3105.50,0.0494
3105.00,0.0494
3104.50,0.0494
3104.00,0.0494
3103.50,0.0494
3103.00,0.0495
3102.50,0.0494
3102.00,0.0494
3101.50,0.0494
3101.00,0.0493
3100.50,0.0493
3100.00,0.0493
3099.50,0.0494
3099.00,0.0494
3098.50,0.0494
3098.00,0.0495
3097.50,0.0495
3097.00,0.0495
3096.50,0.0495
3096.00,0.0495
3095.50,0.0495
3095.00,0.0495
3094.50,0.0496
3094.00,0.0496
3093.50,0.0496
3093.00,0.0495
3092.50,0.0495
3092.00,0.0495
3091.50,0.0494
3091.00,0.0494
3090.50,0.0494
3090.00,0.0494
3089.50,0.0495
3089.00,0.0495
3088.50,0.0495
3088.00,0.0495
3087.50,0.0496
3087.00,0.0496
3086.50,0.0496
3086.00,0.0496
3085.50,0.0496
3085.00,0.0496
3084.50,0.0496
3084.00,0.0496
3083.50,0.0496
3083.00,0.0497
3082.50,0.0497
3082.00,0.0497
3081.50,0.0497
3081.00,0.0497
3080.50,0.0498
3080.00,0.0498
3079.50,0.0498
3079.00,0.0499
3078.50,0.0499
3078.00,0.0499
3077.50,0.0500
3077.00,0.0501
3076.50,0.0502
3076.00,0.0503
3075.50,0.0503
3075.00,0.0504
3074.50,0.0505
3074.00,0.0506
3073.50,0.0506
3073.00,0.0507
3072.50,0.0507
3072.00,0.0508
3071.50,0.0508
3071.00,0.0509
3070.50,0.0509
3070.00,0.0510
3069.50,0.0511
3069.00,0.0511
3068.50,0.0511
3068.00,0.0512
3067.50,0.0512
3067.00,0.0513
3066.50,0.0514
3066.00,0.0516
3065.50,0.0517
3065.00,0.0519
3064.50,0.0520
3064.00,0.0521
3063.50,0.0523
3063.00,0.0524
3062.50,0.0526
3062.00,0.0528
3061.50,0.0529
3061.00,0.0531
3060.50,0.0533
3060.00,0.0535
3059.50,0.0537
3059.00,0.0538
3058.50,0.0540
3058.00,0.0541
3057.50,0.0543
3057.00,0.0545
3056.50,0.0547
3056.00,0.0549
3055.50,0.0550
3055.00,0.0551
3054.50,0.0553
3054.00,0.0554
3053.50,0.0555
3053.00,0.0555
3052.50,0.0555
3052.00,0.0554
3051.50,0.0553
3051.00,0.0552
3050.50,0.0551
3050.00,0.0550
3049.50,0.0548
3049.00,0.0547
3048.50,0.0545
3048.00,0.0542
3047.50,0.0540
3047.00,0.0538
3046.50,0.0535
3046.00,0.0533
3045.50,0.0531
3045.00,0.0530
3044.50,0.0529
3044.00,0.0527
3043.50,0.0526
3043.00,0.0525
3042.50,0.0524
3042.00,0.0523
3041.50,0.0523
3041.00,0.0523
3040.50,0.0523
3040.00,0.0522
3039.50,0.0522
3039.00,0.0523
3038.50,0.0522
3038.00,0.0522
3037.50,0.0522
3037.00,0.0522
3036.50,0.0521
3036.00,0.0520
3035.50,0.0520
3035.00,0.0519
3034.50,0.0519
3034.00,0.0519
3033.50,0.0520
3033.00,0.0520
3032.50,0.0521
3032.00,0.0521
3031.50,0.0521
3031.00,0.0522
3030.50,0.0522
3030.00,0.0522
3029.50,0.0523
3029.00,0.0524
3028.50,0.0525
3028.00,0.0525
3027.50,0.0526
3027.00,0.0527
3026.50,0.0527
3026.00,0.0528
3025.50,0.0528
3025.00,0.0529
3024.50,0.0530
3024.00,0.0531
3023.50,0.0533
3023.00,0.0534
3022.50,0.0536
3022.00,0.0537
3021.50,0.0538
3021.00,0.0539
3020.50,0.0541
3020.00,0.0542
3019.50,0.0544
3019.00,0.0545
3018.50,0.0547
3018.00,0.0548
3017.50,0.0549
3017.00,0.0551
3016.50,0.0552
3016.00,0.0553
3015.50,0.0554
3015.00,0.0555
3014.50,0.0557
3014.00,0.0558
3013.50,0.0559
3013.00,0.0560
3012.50,0.0561
3012.00,0.0562
3011.50,0.0564
3011.00,0.0565
3010.50,0.0567
3010.00,0.0569
3009.50,0.0571
3009.00,0.0573
3008.50,0.0575
3008.00,0.0577
3007.50,0.0579
3007.00,0.0581
3006.50,0.0583
3006.00,0.0585
3005.50,0.0588
3005.00,0.0590
3004.50,0.0593
3004.00,0.0596
3003.50,0.0599
3003.00,0.0603
3002.50,0.0606
3002.00,0.0610
3001.50,0.0614
3001.00,0.0618
3000.50,0.0623
3000.00,0.0627
2999.50,0.0632
2999.00,0.0636
2998.50,0.0641
2998.00,0.0647
2997.50,0.0653
2997.00,0.0659
2996.50,0.0666
2996.00,0.0673
2995.50,0.0680
2995.00,0.0688
2994.50,0.0695
2994.00,0.0703
2993.50,0.0712
2993.00,0.0721
2992.50,0.0731
2992.00,0.0742
2991.50,0.0753
2991.00,0.0765
2990.50,0.0778
2990.00,0.0791
2989.50,0.0805
2989.00,0.0820
2988.50,0.0836
2988.00,0.0853
2987.50,0.0871
2987.00,0.0890
2986.50,0.0910
2986.00,0.0932
2985.50,0.0954
2985.00,0.0979
2984.50,0.1005
2984.00,0.1033
2983.50,0.1062
2983.00,0.1094
2982.50,0.1127
2982.00,0.1163
2981.50,0.1202
2981.00,0.1244
2980.50,0.1289
2980.00,0.1338
2979.50,0.1390
2979.00,0.1445
2978.50,0.1505
2978.00,0.1570
2977.50,0.1640
2977.00,0.1715
2976.50,0.1794
2976.00,0.1880
2975.50,0.1971
2975.00,0.2069
2974.50,0.2173
2974.00,0.2285
2973.50,0.2405
2973.00,0.2531
2972.50,0.2664
2972.00,0.2804
2971.50,0.2951
2971.00,0.3104
2970.50,0.3264
2970.00,0.3428
2969.50,0.3596
2969.00,0.3766
2968.50,0.3938
2968.00,0.4108
2967.50,0.4275
2967.00,0.4436
2966.50,0.4588
2966.00,0.4728
2965.50,0.4852
2965.00,0.4958
2964.50,0.5043
2964.00,0.5104
2963.50,0.5138
2963.00,0.5144
2962.50,0.5123
2962.00,0.5075
2961.50,0.5000
2961.00,0.4899
2960.50,0.4777
2960.00,0.4637
2959.50,0.4480
2959.00,0.4311
2958.50,0.4135
2958.00,0.3954
2957.50,0.3772
2957.00,0.3591
2956.50,0.3414
2956.00,0.3243
2955.50,0.3078
2955.00,0.2920
2954.50,0.2771
2954.00,0.2630
2953.50,0.2498
2953.00,0.2375
2952.50,0.2262
2952.00,0.2157
2951.50,0.2060
2951.00,0.1971
2950.50,0.1887
2950.00,0.1810
2949.50,0.1737
2949.00,0.1670
2948.50,0.1606
2948.00,0.1548
2947.50,0.1493
2947.00,0.1442
2946.50,0.1395
2946.00,0.1352
2945.50,0.1311
2945.00,0.1272
2944.50,0.1236
2944.00,0.1203
2943.50,0.1173
2943.00,0.1145
2942.50,0.1119
2942.00,0.1094
2941.50,0.1071
2941.00,0.1049
2940.50,0.1029
2940.00,0.1010
2939.50,0.0991
2939.00,0.0974
2938.50,0.0958
2938.00,0.0943
2937.50,0.0929
2937.00,0.0916
2936.50,0.0903
2936.00,0.0891
2935.50,0.0880
2935.00,0.0869
2934.50,0.0860
2934.00,0.0850
2933.50,0.0842
2933.00,0.0834
2932.50,0.0826
2932.00,0.0818
2931.50,0.0811
2931.00,0.0804
2930.50,0.0798
2930.00,0.0793
2929.50,0.0788
2929.00,0.0784
2928.50,0.0780
2928.00,0.0777
2927.50,0.0774
2927.00,0.0771
2926.50,0.0768
2926.00,0.0766
2925.50,0.0765
2925.00,0.0763
2924.50,0.0762
2924.00,0.0762
2923.50,0.0761
2923.00,0.0762
2922.50,0.0762
2922.00,0.0764
2921.50,0.0765
2921.00,0.0767
2920.50,0.0770
2920.00,0.0772
2919.50,0.0776
2919.00,0.0780
2918.50,0.0785
2918.00,0.0790
2917.50,0.0796
2917.00,0.0803
2916.50,0.0811
2916.00,0.0820
2915.50,0.0829
2915.00,0.0840
2914.50,0.0851
2914.00,0.0863
2913.50,0.0876
2913.00,0.0891
2912.50,0.0907
2912.00,0.0923
2911.50,0.0940
2911.00,0.0957
2910.50,0.0975
2910.00,0.0993
2909.50,0.1011
2909.00,0.1028
2908.50,0.1045
2908.00,0.1061
2907.50,0.1075
2907.00,0.1087
2906.50,0.1097
2906.00,0.1105
2905.50,0.1110
2905.00,0.1112
2904.50,0.1112
2904.00,0.1110
2903.50,0.1104
2903.00,0.1097
2902.50,0.1087
2902.00,0.1075
2901.50,0.1061
2901.00,0.1046
2900.50,0.1030
2900.00,0.1013
2899.50,0.0995
2899.00,0.0977
2898.50,0.0958
2898.00,0.0940
2897.50,0.0922
2897.00,0.0904
2896.50,0.0887
2896.00,0.0870
2895.50,0.0854
2895.00,0.0839
2894.50,0.0825
2894.00,0.0811
2893.50,0.0798
2893.00,0.0786
2892.50,0.0774
2892.00,0.0763
2891.50,0.0752
2891.00,0.0742
2890.50,0.0732
2890.00,0.0724
2889.50,0.0715
2889.00,0.0707
2888.50,0.0699
2888.00,0.0692
2887.50,0.0685
2887.00,0.0679
2886.50,0.0672
2886.00,0.0667
2885.50,0.0661
2885.00,0.0656
2884.50,0.0651
2884.00,0.0646
2883.50,0.0641
2883.00,0.0637
2882.50,0.0633
2882.00,0.0629
2881.50,0.0625
2881.00,0.0621
2880.50,0.0618
2880.00,0.0614
2879.50,0.0611
2879.00,0.0608
2878.50,0.0605
2878.00,0.0602
2877.50,0.0599
2877.00,0.0596
2876.50,0.0593
2876.00,0.0590
2875.50,0.0587
2875.00,0.0584
2874.50,0.0581
2874.00,0.0578
2873.50,0.0576
2873.00,0.0574
2872.50,0.0572
2872.00,0.0570
2871.50,0.0568
2871.00,0.0566
2870.50,0.0565
2870.00,0.0563
2869.50,0.0561
2869.00,0.0559
2868.50,0.0557
2868.00,0.0556
2867.50,0.0554
2867.00,0.0552
2866.50,0.0551
2866.00,0.0549
2865.50,0.0548
2865.00,0.0547
2864.50,0.0545
2864.00,0.0544
2863.50,0.0543
2863.00,0.0542
2862.50,0.0541
2862.00,0.0540
2861.50,0.0539
2861.00,0.0538
2860.50,0.0537
2860.00,0.0536
2859.50,0.0536
2859.00,0.0535
2858.50,0.0535
2858.00,0.0535
2857.50,0.0534
2857.00,0.0534
2856.50,0.0534
2856.00,0.0533
2855.50,0.0533
2855.00,0.0533
2854.50,0.0532
2854.00,0.0532
2853.50,0.0531
2853.00,0.0531
2852.50,0.0531
2852.00,0.0531
2851.50,0.0530
2851.00,0.0530
2850.50,0.0530
2850.00,0.0529
2849.50,0.0529
2849.00,0.0528
2848.50,0.0527
2848.00,0.0526
2847.50,0.0526
2847.00,0.0525
2846.50,0.0525
2846.00,0.0525
2845.50,0.0524
2845.00,0.0524
2844.50,0.0523
2844.00,0.0523
2843.50,0.0522
2843.00,0.0522
2842.50,0.0521
2842.00,0.0521
2841.50,0.0520
2841.00,0.0520
2840.50,0.0519
2840.00,0.0518
2839.50,0.0517
2839.00,0.0516
2838.50,0.0516
2838.00,0.0516
2837.50,0.0516
2837.00,0.0515
2836.50,0.0515
2836.00,0.0514
2835.50,0.0514
2835.00,0.0513
2834.50,0.0512
2834.00,0.0512
2833.50,0.0511
2833.00,0.0511
2832.50,0.0510
2832.00,0.0509
2831.50,0.0509
2831.00,0.0508
2830.50,0.0508
2830.00,0.0508
2829.50,0.0507
2829.00,0.0507
2828.50,0.0507
2828.00,0.0506
2827.50,0.0506
2827.00,0.0506
2826.50,0.0505
2826.00,0.0505
2825.50,0.0505
2825.00,0.0505
2824.50,0.0505
2824.00,0.0505
2823.50,0.0505
2823.00,0.0505
2822.50,0.0505
2822.00,0.0505
2821.50,0.0505
2821.00,0.0505
2820.50,0.0505
2820.00,0.0506
2819.50,0.0506
2819.00,0.0506
2818.50,0.0507
2818.00,0.0507
2817.50,0.0507
2817.00,0.0507
2816.50,0.0508
2816.00,0.0508
2815.50,0.0508
2815.00,0.0509
2814.50,0.0509
2814.00,0.0509
2813.50,0.0509
2813.00,0.0509
2812.50,0.0509
2812.00,0.0509
2811.50,0.0509
2811.00,0.0509
2810.50,0.0508
2810.00,0.0508
2809.50,0.0509
2809.00,0.0509
2808.50,0.0509
2808.00,0.0509
2807.50,0.0509
2807.00,0.0508
2806.50,0.0508
2806.00,0.0508
2805.50,0.0508
2805.00,0.0507
2804.50,0.0507
2804.00,0.0507
2803.50,0.0507
2803.00,0.0507
2802.50,0.0506
2802.00,0.0506
2801.50,0.0506
2801.00,0.0505
2800.50,0.0505
2800.00,0.0505
2799.50,0.0504
2799.00,0.0504
2798.50,0.0503
2798.00,0.0503
2797.50,0.0503
2797.00,0.0503
2796.50,0.0502
2796.00,0.0501
2795.50,0.0501
2795.00,0.0500
2794.50,0.0500
2794.00,0.0499
2793.50,0.0498
2793.00,0.0497
2792.50,0.0496
2792.00,0.0494
2791.50,0.0493
2791.00,0.0492
2790.50,0.0490
2790.00,0.0489
2789.50,0.0487
2789.00,0.0485
2788.50,0.0483
2788.00,0.0482
2787.50,0.0480
2787.00,0.0478
2786.50,0.0476
2786.00,0.0474
2785.50,0.0472
2785.00,0.0470
2784.50,0.0468
2784.00,0.0466
2783.50,0.0464
2783.00,0.0463
2782.50,0.0461
2782.00,0.0459
2781.50,0.0457
2781.00,0.0455
2780.50,0.0453
2780.00,0.0452
2779.50,0.0450
2779.00,0.0449
2778.50,0.0447
2778.00,0.0446
2777.50,0.0444
2777.00,0.0442
2776.50,0.0441
2776.00,0.0439
2775.50,0.0438
2775.00,0.0436
2774.50,0.0435
2774.00,0.0435
2773.50,0.0434
2773.00,0.0433
2772.50,0.0432
2772.00,0.0431
2771.50,0.0430
2771.00,0.0429
2770.50,0.0429
2770.00,0.0428
2769.50,0.0427
2769.00,0.0426
2768.50,0.0425
2768.00,0.0424
2767.50,0.0424
2767.00,0.0423
2766.50,0.0422
2766.00,0.0422
2765.50,0.0421
2765.00,0.0421
2764.50,0.0420
2764.00,0.0419
2763.50,0.0419
2763.00,0.0418
2762.50,0.0418
2762.00,0.0417
2761.50,0.0417
2761.00,0.0416
2760.50,0.0416
2760.00,0.0415
2759.50,0.0415
2759.00,0.0414
2758.50,0.0414
2758.00,0.0414
2757.50,0.0413
2757.00,0.0413
2756.50,0.0413
2756.00,0.0412
2755.50,0.0412
2755.00,0.0412
2754.50,0.0412
2754.00,0.0411
2753.50,0.0411
2753.00,0.0411
2752.50,0.0410
2752.00,0.0410
2751.50,0.0409
2751.00,0.0409
2750.50,0.0408
2750.00,0.0408
2749.50,0.0408
2749.00,0.0408
2748.50,0.0407
2748.00,0.0407
2747.50,0.0406
2747.00,0.0406
2746.50,0.0406
2746.00,0.0407
2745.50,0.0406
2745.00,0.0406
2744.50,0.0406
2744.00,0.0406
2743.50,0.0406
2743.00,0.0405
2742.50,0.0405
2742.00,0.0405
2741.50,0.0405
2741.00,0.0404
2740.50,0.0404
2740.00,0.0404
2739.50,0.0404
2739.00,0.0403
2738.50,0.0403
2738.00,0.0403
2737.50,0.0403
2737.00,0.0402
2736.50,0.0402
2736.00,0.0403
2735.50,0.0402
2735.00,0.0402
2734.50,0.0402
2734.00,0.0402
2733.50,0.0402
2733.00,0.0402
2732.50,0.0402
2732.00,0.0402
2731.50,0.0402
2731.00,0.0401
2730.50,0.0401
2730.00,0.0401
2729.50,0.0401
2729.00,0.0401
2728.50,0.0401
2728.00,0.0400
2727.50,0.0400
2727.00,0.0400
2726.50,0.0399
2726.00,0.0399
2725.50,0.0400
2725.00,0.0400
2724.50,0.0400
2724.00,0.0400
2723.50,0.0400
2723.00,0.0400
2722.50,0.0399
2722.00,0.0399
2721.50,0.0400
2721.00,0.0400
2720.50,0.0400
2720.00,0.0400
2719.50,0.0400
2719.00,0.0400
2718.50,0.0400
2718.00,0.0400
2717.50,0.0400
2717.00,0.0400
2716.50,0.0400
2716.00,0.0400
2715.50,0.0400
2715.00,0.0400
2714.50,0.0400
2714.00,0.0400
2713.50,0.0400
2713.00,0.0400
2712.50,0.0400
2712.00,0.0400
2711.50,0.0399
2711.00,0.0399
2710.50,0.0399
2710.00,0.0399
2709.50,0.0399
2709.00,0.0399
2708.50,0.0399
2708.00,0.0400
2707.50,0.0400
2707.00,0.0400
2706.50,0.0400
2706.00,0.0399
2705.50,0.0399
2705.00,0.0399
2704.50,0.0399
2704.00,0.0399
2703.50,0.0399
2703.00,0.0399
2702.50,0.0399
2702.00,0.0399
2701.50,0.0399
2701.00,0.0399
2700.50,0.0399
2700.00,0.0398
2699.50,0.0398
2699.00,0.0398
2698.50,0.0398
2698.00,0.0398
2697.50,0.0398
2697.00,0.0398
2696.50,0.0398
2696.00,0.0398
2695.50,0.0398
2695.00,0.0398
2694.50,0.0398
2694.00,0.0398
2693.50,0.0398
2693.00,0.0398
2692.50,0.0398
2692.00,0.0398
2691.50,0.0397
2691.00,0.0397
2690.50,0.0398
2690.00,0.0398
2689.50,0.0398
2689.00,0.0398
2688.50,0.0397
2688.00,0.0398
2687.50,0.0398
2687.00,0.0398
2686.50,0.0398
2686.00,0.0398
2685.50,0.0398
2685.00,0.0398
2684.50,0.0398
2684.00,0.0398
2683.50,0.0399
2683.00,0.0399
2682.50,0.0399
2682.00,0.0399
2681.50,0.0399
2681.00,0.0399
2680.50,0.0399
2680.00,0.0399
2679.50,0.0400
2679.00,0.0400
2678.50,0.0400
2678.00,0.0400
2677.50,0.0401
2677.00,0.0401
2676.50,0.0402
2676.00,0.0402
2675.50,0.0403
2675.00,0.0403
2674.50,0.0403
2674.00,0.0403
2673.50,0.0404
2673.00,0.0404
2672.50,0.0405
2672.00,0.0405
2671.50,0.0406
2671.00,0.0406
2670.50,0.0407
2670.00,0.0407
2669.50,0.0407
2669.00,0.0408
2668.50,0.0408
2668.00,0.0408
2667.50,0.0409
2667.00,0.0409
2666.50,0.0409
2666.00,0.0409
2665.50,0.0410
2665.00,0.0410
2664.50,0.0410
2664.00,0.0410
2663.50,0.0410
2663.00,0.0410
2662.50,0.0410
2662.00,0.0410
2661.50,0.0410
2661.00,0.0410
2660.50,0.0410
2660.00,0.0410
2659.50,0.0410
2659.00,0.0409
2658.50,0.0409
2658.00,0.0409
2657.50,0.0409
2657.00,0.0408
2656.50,0.0408
2656.00,0.0407
2655.50,0.0407
2655.00,0.0407
2654.50,0.0406
2654.00,0.0406
2653.50,0.0405
2653.00,0.0405
2652.50,0.0404
2652.00,0.0404
2651.50,0.0403
2651.00,0.0403
2650.50,0.0402
2650.00,0.0402
2649.50,0.0401
2649.00,0.0401
2648.50,0.0400
2648.00,0.0399
2647.50,0.0399
2647.00,0.0398
2646.50,0.0398
2646.00,0.0397
2645.50,0.0397
2645.00,0.0396
2644.50,0.0396
2644.00,0.0396
2643.50,0.0395
2643.00,0.0395
2642.50,0.0394
2642.00,0.0394
2641.50,0.0394
2641.00,0.0393
2640.50,0.0393
2640.00,0.0392
2639.50,0.0392
2639.00,0.0392
2638.50,0.0391
2638.00,0.0391
2637.50,0.0391
2637.00,0.0391
2636.50,0.0390
2636.00,0.0390
2635.50,0.0390
2635.00,0.0390
2634.50,0.0389
2634.00,0.0389
2633.50,0.0389
2633.00,0.0389
2632.50,0.0388
2632.00,0.0388
2631.50,0.0388
2631.00,0.0388
2630.50,0.0388
2630.00,0.0387
2629.50,0.0387
2629.00,0.0387
2628.50,0.0387
2628.00,0.0387
2627.50,0.0387
2627.00,0.0386
2626.50,0.0386
2626.00,0.0386
2625.50,0.0386
2625.00,0.0386
2624.50,0.0386
2624.00,0.0386
2623.50,0.0386
2623.00,0.0385
2622.50,0.0385
2622.00,0.0385
2621.50,0.0385
2621.00,0.0385
2620.50,0.0385
2620.00,0.0385
2619.50,0.0385
2619.00,0.0384
2618.50,0.0384
2618.00,0.0384
2617.50,0.0384
2617.00,0.0384
2616.50,0.0384
2616.00,0.0384
2615.50,0.0384
2615.00,0.0384
2614.50,0.0384
2614.00,0.0384
2613.50,0.0384
2613.00,0.0384
2612.50,0.0384
2612.00,0.0383
2611.50,0.0383
2611.00,0.0383
2610.50,0.0383
2610.00,0.0383
2609.50,0.0383
2609.00,0.0383
2608.50,0.0383
2608.00,0.0383
2607.50,0.0383
2607.00,0.0383
2606.50,0.0382
2606.00,0.0382
2605.50,0.0382
2605.00,0.0382
2604.50,0.0382
2604.00,0.0382
2603.50,0.0382
2603.00,0.0382
2602.50,0.0382
2602.00,0.0382
2601.50,0.0382
2601.00,0.0382
2600.50,0.0382
2600.00,0.0381
2599.50,0.0381
2599.00,0.0381
2598.50,0.0381
2598.00,0.0381
2597.50,0.0381
2597.00,0.0381
2596.50,0.0381
2596.00,0.0381
2595.50,0.0381
2595.00,0.0381
2594.50,0.0381
2594.00,0.0381
2593.50,0.0381
2593.00,0.0381
2592.50,0.0381
2592.00,0.0381
2591.50,0.0381
2591.00,0.0381
2590.50,0.0381
2590.00,0.0381
2589.50,0.0381
2589.00,0.0381
2588.50,0.0380
2588.00,0.0380
2587.50,0.0380
2587.00,0.0380
2586.50,0.0380
2586.00,0.0380
2585.50,0.0380
2585.00,0.0380
2584.50,0.0380
2584.00,0.0380
2583.50,0.0380
2583.00,0.0380
2582.50,0.0380
2582.00,0.0380
2581.50,0.0380
2581.00,0.0380
2580.50,0.0380
2580.00,0.0380
2579.50,0.0380
2579.00,0.0380
2578.50,0.0380
2578.00,0.0380
2577.50,0.0380
2577.00,0.0379
2576.50,0.0379
2576.00,0.0379
2575.50,0.0379
2575.00,0.0379
2574.50,0.0379
2574.00,0.0379
2573.50,0.0379
2573.00,0.0379
2572.50,0.0379
2572.00,0.0379
2571.50,0.0379
2571.00,0.0379
2570.50,0.0379
2570.00,0.0379
2569.50,0.0379
2569.00,0.0379
2568.50,0.0379
2568.00,0.0379
2567.50,0.0378
2567.00,0.0378
2566.50,0.0378
2566.00,0.0378
2565.50,0.0379
2565.00,0.0379
2564.50,0.0379
2564.00,0.0379
2563.50,0.0378
2563.00,0.0378
2562.50,0.0378
2562.00,0.0378
2561.50,0.0378
2561.00,0.0378
2560.50,0.0378
2560.00,0.0378
2559.50,0.0378
2559.00,0.0378
2558.50,0.0378
2558.00,0.0378
2557.50,0.0378
2557.00,0.0378
2556.50,0.0378
2556.00,0.0378
2555.50,0.0378
2555.00,0.0378
2554.50,0.0378
2554.00,0.0378
2553.50,0.0378
2553.00,0.0378
2552.50,0.0378
2552.00,0.0378
2551.50,0.0378
2551.00,0.0378
2550.50,0.0377
2550.00,0.0377
2549.50,0.0377
2549.00,0.0377
2548.50,0.0377
2548.00,0.0377
2547.50,0.0377
2547.00,0.0377
2546.50,0.0377
2546.00,0.0377
2545.50,0.0377
2545.00,0.0377
2544.50,0.0377
2544.00,0.0376
2543.50,0.0376
2543.00,0.0376
2542.50,0.0376
2542.00,0.0376
2541.50,0.0376
2541.00,0.0376
2540.50,0.0376
2540.00,0.0376
2539.50,0.0376
2539.00,0.0375
2538.50,0.0375
2538.00,0.0375
2537.50,0.0375
2537.00,0.0375
2536.50,0.0375
2536.00,0.0375
2535.50,0.0375
2535.00,0.0375
2534.50,0.0375
2534.00,0.0375
2533.50,0.0375
2533.00,0.0375
2532.50,0.0375
2532.00,0.0375
2531.50,0.0375
2531.00,0.0375
2530.50,0.0375
2530.00,0.0375
2529.50,0.0375
2529.00,0.0375
2528.50,0.0375
2528.00,0.0375
2527.50,0.0375
2527.00,0.0375
2526.50,0.0375
2526.00,0.0375
2525.50,0.0375
2525.00,0.0375
2524.50,0.0375
2524.00,0.0375
2523.50,0.0375
2523.00,0.0375
2522.50,0.0376
2522.00,0.0376
2521.50,0.0376
2521.00,0.0376
2520.50,0.0376
2520.00,0.0376
2519.50,0.0376
2519.00,0.0376
2518.50,0.0376
2518.00,0.0377
2517.50,0.0377
2517.00,0.0377
2516.50,0.0377
2516.00,0.0377
2515.50,0.0377
2515.00,0.0378
2514.50,0.0378
2514.00,0.0378
2513.50,0.0379
2513.00,0.0379
2512.50,0.0379
2512.00,0.0380
2511.50,0.0380
2511.00,0.0381
2510.50,0.0381
2510.00,0.0382
2509.50,0.0382
2509.00,0.0383
2508.50,0.0384
2508.00,0.0385
2507.50,0.0385
2507.00,0.0386
2506.50,0.0387
2506.00,0.0389
2505.50,0.0390
2505.00,0.0391
2504.50,0.0392
2504.00,0.0394
2503.50,0.0395
2503.00,0.0396
2502.50,0.0397
2502.00,0.0399
2501.50,0.0400
2501.00,0.0401
2500.50,0.0401
2500.00,0.0402
2499.50,0.0402
2499.00,0.0402
2498.50,0.0402
2498.00,0.0402
2497.50,0.0402
2497.00,0.0401
2496.50,0.0400
2496.00,0.0400
2495.50,0.0399
2495.00,0.0398
2494.50,0.0397
2494.00,0.0397
2493.50,0.0396
2493.00,0.0395
2492.50,0.0394
2492.00,0.0393
2491.50,0.0392
2491.00,0.0392
2490.50,0.0391
2490.00,0.0390
2489.50,0.0389
2489.00,0.0388
2488.50,0.0388
2488.00,0.0387
2487.50,0.0386
2487.00,0.0386
2486.50,0.0385
2486.00,0.0385
2485.50,0.0384
2485.00,0.0384
2484.50,0.0383
2484.00,0.0383
2483.50,0.0382
2483.00,0.0382
2482.50,0.0381
2482.00,0.0381
2481.50,0.0381
2481.00,0.0381
2480.50,0.0380
2480.00,0.0380
2479.50,0.0380
2479.00,0.0380
2478.50,0.0380
2478.00,0.0380
2477.50,0.0379
2477.00,0.0379
2476.50,0.0379
2476.00,0.0379
2475.50,0.0379
2475.00,0.0378
2474.50,0.0378
2474.00,0.0378
2473.50,0.0378
2473.00,0.0378
2472.50,0.0378
2472.00,0.0378
2471.50,0.0378
2471.00,0.0378
2470.50,0.0378
2470.00,0.0377
2469.50,0.0377
2469.00,0.0377
2468.50,0.0377
2468.00,0.0377
2467.50,0.0377
2467.00,0.0377
2466.50,0.0377
2466.00,0.0377
2465.50,0.0377
2465.00,0.0377
2464.50,0.0377
2464.00,0.0377
2463.50,0.0376
2463.00,0.0376
2462.50,0.0376
2462.00,0.0376
2461.50,0.0376
2461.00,0.0376
2460.50,0.0376
2460.00,0.0376
2459.50,0.0376
2459.00,0.0376
2458.50,0.0376
2458.00,0.0375
2457.50,0.0375
2457.00,0.0375
2456.50,0.0375
2456.00,0.0375
2455.50,0.0375
2455.00,0.0375
2454.50,0.0375
2454.00,0.0375
2453.50,0.0375
2453.00,0.0375
2452.50,0.0375
2452.00,0.0375
2451.50,0.0375
2451.00,0.0375
2450.50,0.0375
2450.00,0.0375
2449.50,0.0375
2449.00,0.0374
2448.50,0.0374
2448.00,0.0375
2447.50,0.0375
2447.00,0.0375
2446.50,0.0375
2446.00,0.0375
2445.50,0.0375
2445.00,0.0375
2444.50,0.0374
2444.00,0.0374
2443.50,0.0374
2443.00,0.0374
2442.50,0.0374
2442.00,0.0374
2441.50,0.0374
2441.00,0.0374
2440.50,0.0374
2440.00,0.0374
2439.50,0.0374
2439.00,0.0374
2438.50,0.0374
2438.00,0.0374
2437.50,0.0374
2437.00,0.0374
2436.50,0.0374
2436.00,0.0374
2435.50,0.0374
2435.00,0.0374
2434.50,0.0373
2434.00,0.0373
2433.50,0.0373
2433.00,0.0373
2432.50,0.0373
2432.00,0.0373
2431.50,0.0373
2431.00,0.0373
2430.50,0.0373
2430.00,0.0373
2429.50,0.0373
2429.00,0.0373
2428.50,0.0373
2428.00,0.0373
2427.50,0.0373
2427.00,0.0373
2426.50,0.0373
2426.00,0.0373
2425.50,0.0373
2425.00,0.0373
2424.50,0.0373
2424.00,0.0373
2423.50,0.0372
2423.00,0.0372
2422.50,0.0372
2422.00,0.0372
2421.50,0.0372
2421.00,0.0372
2420.50,0.0372
2420.00,0.0372
2419.50,0.0372
2419.00,0.0372
2418.50,0.0372
2418.00,0.0372
2417.50,0.0372
2417.00,0.0372
2416.50,0.0372
2416.00,0.0372
2415.50,0.0372
2415.00,0.0372
2414.50,0.0372
2414.00,0.0372
2413.50,0.0372
2413.00,0.0372
2412.50,0.0372
2412.00,0.0372
2411.50,0.0372
2411.00,0.0372
2410.50,0.0372
2410.00,0.0372
2409.50,0.0372
2409.00,0.0372
2408.50,0.0372
2408.00,0.0372
2407.50,0.0372
2407.00,0.0372
2406.50,0.0372
2406.00,0.0372
2405.50,0.0372
2405.00,0.0372
2404.50,0.0372
2404.00,0.0372
2403.50,0.0372
2403.00,0.0372
2402.50,0.0372
2402.00,0.0371
2401.50,0.0371
2401.00,0.0371
2400.50,0.0371
2400.00,0.0371
2399.50,0.0371
2399.00,0.0371
2398.50,0.0371
2398.00,0.0371
2397.50,0.0371
2397.00,0.0371
2396.50,0.0371
2396.00,0.0371
2395.50,0.0371
2395.00,0.0371
2394.50,0.0371
2394.00,0.0371
2393.50,0.0371
2393.00,0.0371
2392.50,0.0371
2392.00,0.0371
2391.50,0.0371
2391.00,0.0371
2390.50,0.0371
2390.00,0.0371
2389.50,0.0371
2389.00,0.0371
2388.50,0.0371
2388.00,0.0371
2387.50,0.0371
2387.00,0.0371
2386.50,0.0371
2386.00,0.0370
2385.50,0.0370
2385.00,0.0370
2384.50,0.0370
2384.00,0.0370
2383.50,0.0370
2383.00,0.0370
2382.50,0.0370
2382.00,0.0370
2381.50,0.0370
2381.00,0.0370
2380.50,0.0370
2380.00,0.0371
2379.50,0.0372
2379.00,0.0372
2378.50,0.0373
2378.00,0.0374
2377.50,0.0375
2377.00,0.0376
2376.50,0.0376
2376.00,0.0377
2375.50,0.0377
2375.00,0.0377
2374.50,0.0376
2374.00,0.0376
2373.50,0.0375
2373.00,0.0375
2372.50,0.0375
2372.00,0.0374
2371.50,0.0374
2371.00,0.0374
2370.50,0.0374
2370.00,0.0374
2369.50,0.0373
2369.00,0.0374
2368.50,0.0374
2368.00,0.0374
2367.50,0.0374
2367.00,0.0374
2366.50,0.0374
2366.00,0.0374
2365.50,0.0374
2365.00,0.0374
2364.50,0.0374
2364.00,0.0374
2363.50,0.0374
2363.00,0.0375
2362.50,0.0375
2362.00,0.0375
2361.50,0.0375
2361.00,0.0375
2360.50,0.0374
2360.00,0.0374
2359.50,0.0374
2359.00,0.0375
2358.50,0.0374
2358.00,0.0373
2357.50,0.0372
2357.00,0.0372
2356.50,0.0372
2356.00,0.0373
2355.50,0.0373
2355.00,0.0374
2354.50,0.0375
2354.00,0.0374
2353.50,0.0373
2353.00,0.0374
2352.50,0.0375
2352.00,0.0375
2351.50,0.0374
2351.00,0.0373
2350.50,0.0372
2350.00,0.0371
2349.50,0.0371
2349.00,0.0372
2348.50,0.0373
2348.00,0.0374
2347.50,0.0375
2347.00,0.0375
2346.50,0.0376
2346.00,0.0375
2345.50,0.0374
2345.00,0.0373
2344.50,0.0372
2344.00,0.0371
2343.50,0.0370
2343.00,0.0370
2342.50,0.0370
2342.00,0.0371
2341.50,0.0371
2341.00,0.0372
2340.50,0.0373
2340.00,0.0374
2339.50,0.0375
2339.00,0.0375
2338.50,0.0376
2338.00,0.0376
2337.50,0.0375
2337.00,0.0375
2336.50,0.0375
2336.00,0.0376
2335.50,0.0375
2335.00,0.0375
2334.50,0.0376
2334.00,0.0376
2333.50,0.0375
2333.00,0.0375
2332.50,0.0375
2332.00,0.0375
2331.50,0.0374
2331.00,0.0374
2330.50,0.0375
2330.00,0.0375
2329.50,0.0374
2329.00,0.0373
2328.50,0.0373
2328.00,0.0373
2327.50,0.0372
2327.00,0.0372
2326.50,0.0373
2326.00,0.0373
2325.50,0.0373
2325.00,0.0372
2324.50,0.0372
2324.00,0.0373
2323.50,0.0373
2323.00,0.0372
2322.50,0.0373
2322.00,0.0373
2321.50,0.0372
2321.00,0.0372
2320.50,0.0372
2320.00,0.0373
2319.50,0.0373
2319.00,0.0372
2318.50,0.0372
2318.00,0.0373
2317.50,0.0372
2317.00,0.0371
2316.50,0.0372
2316.00,0.0373
2315.50,0.0373
2315.00,0.0372
2314.50,0.0372
2314.00,0.0373
2313.50,0.0373
2313.00,0.0372
2312.50,0.0372
2312.00,0.0372
2311.50,0.0372
2311.00,0.0371
2310.50,0.0370
2310.00,0.0371
2309.50,0.0371
2309.00,0.0371
2308.50,0.0370
2308.00,0.0371
2307.50,0.0371
2307.00,0.0371
2306.50,0.0370
2306.00,0.0371
2305.50,0.0372
2305.00,0.0372
2304.50,0.0371
2304.00,0.0371
2303.50,0.0371
2303.00,0.0371
2302.50,0.0371
2302.00,0.0371
2301.50,0.0371
2301.00,0.0371
2300.50,0.0371
2300.00,0.0371
2299.50,0.0371
2299.00,0.0372
2298.50,0.0371
2298.00,0.0371
2297.50,0.0371
2297.00,0.0372
2296.50,0.0372
2296.00,0.0372
2295.50,0.0372
2295.00,0.0372
2294.50,0.0372
2294.00,0.0372
2293.50,0.0372
2293.00,0.0373
2292.50,0.0373
2292.00,0.0373
2291.50,0.0373
2291.00,0.0373
2290.50,0.0373
2290.00,0.0373
2289.50,0.0373
2289.00,0.0373
2288.50,0.0373
2288.00,0.0374
2287.50,0.0374
2287.00,0.0374
2286.50,0.0374
2286.00,0.0374
2285.50,0.0374
2285.00,0.0374
2284.50,0.0375
2284.00,0.0375
2283.50,0.0375
2283.00,0.0375
2282.50,0.0375
2282.00,0.0375
2281.50,0.0375
2281.00,0.0375
2280.50,0.0375
2280.00,0.0375
2279.50,0.0375
2279.00,0.0375
2278.50,0.0375
2278.00,0.0375
2277.50,0.0376
2277.00,0.0376
2276.50,0.0376
2276.00,0.0376
2275.50,0.0376
2275.00,0.0376
2274.50,0.0376
2274.00,0.0376
2273.50,0.0376
2273.00,0.0376
2272.50,0.0376
2272.00,0.0376
2271.50,0.0376
2271.00,0.0376
2270.50,0.0376
2270.00,0.0376
2269.50,0.0376
2269.00,0.0377
2268.50,0.0376
2268.00,0.0376
2267.50,0.0376
2267.00,0.0376
2266.50,0.0376
2266.00,0.0376
2265.50,0.0377
2265.00,0.0377
2264.50,0.0377
2264.00,0.0376
2263.50,0.0376
2263.00,0.0377
2262.50,0.0377
2262.00,0.0377
2261.50,0.0377
2261.00,0.0377
2260.50,0.0377
2260.00,0.0377
2259.50,0.0377
2259.00,0.0377
2258.50,0.0377
2258.00,0.0377
2257.50,0.0377
2257.00,0.0377
2256.50,0.0377
2256.00,0.0376
2255.50,0.0376
2255.00,0.0377
2254.50,0.0377
2254.00,0.0377
2253.50,0.0377
2253.00,0.0377
2252.50,0.0377
2252.00,0.0377
2251.50,0.0377
2251.00,0.0377
2250.50,0.0377
2250.00,0.0377
2249.50,0.0377
2249.00,0.0377
2248.50,0.0378
2248.00,0.0378
2247.50,0.0378
2247.00,0.0378
2246.50,0.0378
2246.00,0.0378
2245.50,0.0378
2245.00,0.0379
2244.50,0.0379
2244.00,0.0379
2243.50,0.0379
2243.00,0.0379
2242.50,0.0379
2242.00,0.0379
2241.50,0.0379
2241.00,0.0379
2240.50,0.0380
2240.00,0.0380
2239.50,0.0380
2239.00,0.0380
2238.50,0.0380
2238.00,0.0380
2237.50,0.0380
2237.00,0.0380
2236.50,0.0381
2236.00,0.0381
2235.50,0.0381
2235.00,0.0381
2234.50,0.0381
2234.00,0.0381
2233.50,0.0382
2233.00,0.0382
2232.50,0.0382
2232.00,0.0382
2231.50,0.0382
2231.00,0.0383
2230.50,0.0383
2230.00,0.0383
2229.50,0.0383
2229.00,0.0384
2228.50,0.0384
2228.00,0.0384
2227.50,0.0384
2227.00,0.0384
2226.50,0.0385
2226.00,0.0385
2225.50,0.0385
2225.00,0.0386
2224.50,0.0386
2224.00,0.0386
2223.50,0.0387
2223.00,0.0387
2222.50,0.0387
2222.00,0.0388
2221.50,0.0388
2221.00,0.0388
2220.50,0.0389
2220.00,0.0389
2219.50,0.0390
2219.00,0.0390
2218.50,0.0390
2218.00,0.0391
2217.50,0.0391
2217.00,0.0392
2216.50,0.0392
2216.00,0.0393
2215.50,0.0393
2215.00,0.0394
2214.50,0.0394
2214.00,0.0395
2213.50,0.0395
2213.00,0.0396
2212.50,0.0396
2212.00,0.0397
2211.50,0.0397
2211.00,0.0398
2210.50,0.0399
2210.00,0.0399
2209.50,0.0400
2209.00,0.0401
2208.50,0.0401
2208.00,0.0402
2207.50,0.0403
2207.00,0.0403
2206.50,0.0404
2206.00,0.0405
2205.50,0.0406
2205.00,0.0407
2204.50,0.0408
2204.00,0.0409
2203.50,0.0410
2203.00,0.0411
2202.50,0.0412
2202.00,0.0413
2201.50,0.0414
2201.00,0.0415
2200.50,0.0416
2200.00,0.0417
2199.50,0.0419
2199.00,0.0420
2198.50,0.0421
2198.00,0.0423
2197.50,0.0424
2197.00,0.0426
2196.50,0.0427
2196.00,0.0429
2195.50,0.0430
2195.00,0.0432
2194.50,0.0434
2194.00,0.0436
2193.50,0.0438
2193.00,0.0440
2192.50,0.0442
2192.00,0.0444
2191.50,0.0446
2191.00,0.0449
2190.50,0.0451
2190.00,0.0454
2189.50,0.0456
2189.00,0.0459
2188.50,0.0462
2188.00,0.0465
2187.50,0.0468
2187.00,0.0471
2186.50,0.0474
2186.00,0.0477
2185.50,0.0480
2185.00,0.0483
2184.50,0.0487
2184.00,0.0490
2183.50,0.0494
2183.00,0.0498
2182.50,0.0502
2182.00,0.0506
2181.50,0.0510
2181.00,0.0514
2180.50,0.0518
2180.00,0.0522
2179.50,0.0526
2179.00,0.0530
2178.50,0.0534
2178.00,0.0539
2177.50,0.0543
2177.00,0.0547
2176.50,0.0552
2176.00,0.0556
2175.50,0.0560
2175.00,0.0565
2174.50,0.0569
2174.00,0.0573
2173.50,0.0577
2173.00,0.0582
2172.50,0.0586
2172.00,0.0589
2171.50,0.0593
2171.00,0.0597
2170.50,0.0600
2170.00,0.0604
2169.50,0.0607
2169.00,0.0610
2168.50,0.0613
2168.00,0.0615
2167.50,0.0618
2167.00,0.0620
2166.50,0.0623
2166.00,0.0624
2165.50,0.0626
2165.00,0.0628
2164.50,0.0629
2164.00,0.0630
2163.50,0.0630
2163.00,0.0631
2162.50,0.0631
2162.00,0.0631
2161.50,0.0631
2161.00,0.0630
2160.50,0.0629
2160.00,0.0628
2159.50,0.0627
2159.00,0.0626
2158.50,0.0624
2158.00,0.0622
2157.50,0.0619
2157.00,0.0617
2156.50,0.0614
2156.00,0.0612
2155.50,0.0609
2155.00,0.0605
2154.50,0.0602
2154.00,0.0599
2153.50,0.0595
2153.00,0.0591
2152.50,0.0588
2152.00,0.0584
2151.50,0.0580
2151.00,0.0575
2150.50,0.0571
2150.00,0.0567
2149.50,0.0563
2149.00,0.0558
2148.50,0.0554
2148.00,0.0550
2147.50,0.0545
2147.00,0.0541
2146.50,0.0537
2146.00,0.0532
2145.50,0.0528
2145.00,0.0524
2144.50,0.0520
2144.00,0.0516
2143.50,0.0512
2143.00,0.0508
2142.50,0.0504
2142.00,0.0500
2141.50,0.0496
2141.00,0.0493
2140.50,0.0489
2140.00,0.0486
2139.50,0.0483
2139.00,0.0479
2138.50,0.0476
2138.00,0.0473
2137.50,0.0470
2137.00,0.0467
2136.50,0.0464
2136.00,0.0462
2135.50,0.0459
2135.00,0.0457
2134.50,0.0454
2134.00,0.0452
2133.50,0.0450
2133.00,0.0448
2132.50,0.0446
2132.00,0.0444
2131.50,0.0442
2131.00,0.0440
2130.50,0.0438
2130.00,0.0436
2129.50,0.0435
2129.00,0.0433
2128.50,0.0432
2128.00,0.0430
2127.50,0.0429
2127.00,0.0428
2126.50,0.0427
2126.00,0.0425
2125.50,0.0424
2125.00,0.0423
2124.50,0.0422
2124.00,0.0421
2123.50,0.0420
2123.00,0.0419
2122.50,0.0418
2122.00,0.0417
2121.50,0.0416
2121.00,0.0416
2120.50,0.0415
2120.00,0.0414
2119.50,0.0413
2119.00,0.0413
2118.50,0.0412
2118.00,0.0411
2117.50,0.0411
2117.00,0.0410
2116.50,0.0410
2116.00,0.0409
2115.50,0.0408
2115.00,0.0408
2114.50,0.0407
2114.00,0.0407
2113.50,0.0407
2113.00,0.0406
2112.50,0.0406
2112.00,0.0406
2111.50,0.0405
2111.00,0.0405
2110.50,0.0404
2110.00,0.0404
2109.50,0.0404
2109.00,0.0404
2108.50,0.0403
2108.00,0.0403
2107.50,0.0403
2107.00,0.0403
2106.50,0.0402
2106.00,0.0402
2105.50,0.0402
2105.00,0.0402
2104.50,0.0402
2104.00,0.0402
2103.50,0.0401
2103.00,0.0401
2102.50,0.0401
2102.00,0.0401
2101.50,0.0401
2101.00,0.0400
2100.50,0.0400
2100.00,0.0400
2099.50,0.0400
2099.00,0.0400
2098.50,0.0400
2098.00,0.0399
2097.50,0.0399
2097.00,0.0399
2096.50,0.0399
2096.00,0.0399
2095.50,0.0398
2095.00,0.0398
2094.50,0.0398
2094.00,0.0398
2093.50,0.0398
2093.00,0.0398
2092.50,0.0398
2092.00,0.0398
2091.50,0.0398
2091.00,0.0397
2090.50,0.0397
2090.00,0.0397
2089.50,0.0397
2089.00,0.0397
2088.50,0.0397
2088.00,0.0397
2087.50,0.0397
2087.00,0.0397
2086.50,0.0397
2086.00,0.0397
2085.50,0.0397
2085.00,0.0397
2084.50,0.0397
2084.00,0.0397
2083.50,0.0397
2083.00,0.0397
2082.50,0.0397
2082.00,0.0397
2081.50,0.0397
2081.00,0.0397
2080.50,0.0398
2080.00,0.0398
2079.50,0.0398
2079.00,0.0398
2078.50,0.0398
2078.00,0.0398
2077.50,0.0398
2077.00,0.0398
2076.50,0.0398
2076.00,0.0398
2075.50,0.0399
2075.00,0.0399
2074.50,0.0399
2074.00,0.0399
2073.50,0.0399
2073.00,0.0399
2072.50,0.0399
2072.00,0.0400
2071.50,0.0400
2071.00,0.0400
2070.50,0.0400
2070.00,0.0400
2069.50,0.0401
2069.00,0.0401
2068.50,0.0401
2068.00,0.0401
2067.50,0.0402
2067.00,0.0402
2066.50,0.0402
2066.00,0.0402
2065.50,0.0403
2065.00,0.0403
2064.50,0.0403
2064.00,0.0403
2063.50,0.0403
2063.00,0.0404
2062.50,0.0404
2062.00,0.0404
2061.50,0.0405
2061.00,0.0405
2060.50,0.0405
2060.00,0.0405
2059.50,0.0406
2059.00,0.0406
2058.50,0.0406
2058.00,0.0407
2057.50,0.0407
2057.00,0.0407
2056.50,0.0407
2056.00,0.0408
2055.50,0.0408
2055.00,0.0408
2054.50,0.0408
2054.00,0.0408
2053.50,0.0409
2053.00,0.0409
2052.50,0.0409
2052.00,0.0409
2051.50,0.0409
2051.00,0.0409
2050.50,0.0409
2050.00,0.0408
2049.50,0.0408
2049.00,0.0408
2048.50,0.0408
2048.00,0.0407
2047.50,0.0407
2047.00,0.0406
2046.50,0.0405
2046.00,0.0405
2045.50,0.0404
2045.00,0.0403
2044.50,0.0403
2044.00,0.0402
2043.50,0.0401
2043.00,0.0400
2042.50,0.0399
2042.00,0.0398
2041.50,0.0397
2041.00,0.0396
2040.50,0.0395
2040.00,0.0395
2039.50,0.0394
2039.00,0.0393
2038.50,0.0392
2038.00,0.0392
2037.50,0.0391
2037.00,0.0390
2036.50,0.0390
2036.00,0.0389
2035.50,0.0389
2035.00,0.0389
2034.50,0.0388
2034.00,0.0388
2033.50,0.0387
2033.00,0.0387
2032.50,0.0387
2032.00,0.0387
2031.50,0.0386
2031.00,0.0386
2030.50,0.0386
2030.00,0.0386
2029.50,0.0386
2029.00,0.0386
2028.50,0.0386
2028.00,0.0386
2027.50,0.0386
2027.00,0.0386
2026.50,0.0386
2026.00,0.0387
2025.50,0.0387
2025.00,0.0387
2024.50,0.0387
2024.00,0.0387
2023.50,0.0387
2023.00,0.0388
2022.50,0.0388
2022.00,0.0388
2021.50,0.0389
2021.00,0.0389
2020.50,0.0390
2020.00,0.0390
2019.50,0.0390
2019.00,0.0391
2018.50,0.0391
2018.00,0.0391
2017.50,0.0392
2017.00,0.0392
2016.50,0.0393
2016.00,0.0393
2015.50,0.0394
2015.00,0.0394
2014.50,0.0395
2014.00,0.0395
2013.50,0.0396
2013.00,0.0396
2012.50,0.0397
2012.00,0.0397
2011.50,0.0398
2011.00,0.0398
2010.50,0.0399
2010.00,0.0399
2009.50,0.0399
2009.00,0.0400
2008.50,0.0400
2008.00,0.0401
2007.50,0.0401
2007.00,0.0401
2006.50,0.0402
2006.00,0.0402
2005.50,0.0402
2005.00,0.0402
2004.50,0.0402
2004.00,0.0403
2003.50,0.0403
2003.00,0.0403
2002.50,0.0404
2002.00,0.0404
2001.50,0.0404
2001.00,0.0404
2000.50,0.0404
2000.00,0.0405
1999.50,0.0405
1999.00,0.0405
1998.50,0.0405
1998.00,0.0405
1997.50,0.0405
1997.00,0.0405
1996.50,0.0405
1996.00,0.0405
1995.50,0.0405
1995.00,0.0405
1994.50,0.0405
1994.00,0.0405
1993.50,0.0405
1993.00,0.0405
1992.50,0.0405
1992.00,0.0405
1991.50,0.0405
1991.00,0.0405
1990.50,0.0405
1990.00,0.0405
1989.50,0.0406
1989.00,0.0406
1988.50,0.0406
1988.00,0.0406
1987.50,0.0407
1987.00,0.0407
1986.50,0.0407
1986.00,0.0408
1985.50,0.0408
1985.00,0.0409
1984.50,0.0409
1984.00,0.0410
1983.50,0.0410
1983.00,0.0411
1982.50,0.0411
1982.00,0.0412
1981.50,0.0413
1981.00,0.0413
1980.50,0.0414
1980.00,0.0415
1979.50,0.0415
1979.00,0.0416
1978.50,0.0417
1978.00,0.0418
1977.50,0.0419
1977.00,0.0420
1976.50,0.0420
1976.00,0.0421
1975.50,0.0422
1975.00,0.0423
1974.50,0.0424
1974.00,0.0425
1973.50,0.0427
1973.00,0.0428
1972.50,0.0429
1972.00,0.0430
1971.50,0.0431
1971.00,0.0432
1970.50,0.0434
1970.00,0.0435
1969.50,0.0436
1969.00,0.0437
1968.50,0.0438
1968.00,0.0440
1967.50,0.0441
1967.00,0.0442
1966.50,0.0443
1966.00,0.0444
1965.50,0.0445
1965.00,0.0447
1964.50,0.0448
1964.00,0.0449
1963.50,0.0450
1963.00,0.0451
1962.50,0.0451
1962.00,0.0452
1961.50,0.0453
1961.00,0.0454
1960.50,0.0455
1960.00,0.0456
1959.50,0.0457
1959.00,0.0458
1958.50,0.0459
1958.00,0.0460
1957.50,0.0461
1957.00,0.0462
1956.50,0.0463
1956.00,0.0464
1955.50,0.0465
1955.00,0.0466
1954.50,0.0467
1954.00,0.0468
1953.50,0.0469
1953.00,0.0471
1952.50,0.0472
1952.00,0.0473
1951.50,0.0474
1951.00,0.0476
1950.50,0.0477
1950.00,0.0478
1949.50,0.0479
1949.00,0.0481
1948.50,0.0482
1948.00,0.0483
1947.50,0.0484
1947.00,0.0484
1946.50,0.0485
1946.00,0.0486
1945.50,0.0486
1945.00,0.0487
1944.50,0.0487
1944.00,0.0487
1943.50,0.0487
1943.00,0.0487
1942.50,0.0486
1942.00,0.0485
1941.50,0.0484
1941.00,0.0483
1940.50,0.0482
1940.00,0.0481
1939.50,0.0479
1939.00,0.0477
1938.50,0.0476
1938.00,0.0474
1937.50,0.0472
1937.00,0.0470
1936.50,0.0468
1936.00,0.0466
1935.50,0.0464
1935.00,0.0462
1934.50,0.0461
1934.00,0.0459
1933.50,0.0457
1933.00,0.0456
1932.50,0.0454
1932.00,0.0453
1931.50,0.0451
1931.00,0.0450
1930.50,0.0449
1930.00,0.0448
1929.50,0.0447
1929.00,0.0447
1928.50,0.0446
1928.00,0.0445
1927.50,0.0444
1927.00,0.0444
1926.50,0.0443
1926.00,0.0442
1925.50,0.0442
1925.00,0.0442
1924.50,0.0441
1924.00,0.0440
1923.50,0.0440
1923.00,0.0439
1922.50,0.0439
1922.00,0.0438
1921.50,0.0438
1921.00,0.0438
1920.50,0.0437
1920.00,0.0437
1919.50,0.0437
1919.00,0.0436
1918.50,0.0436
1918.00,0.0435
1917.50,0.0434
1917.00,0.0434
1916.50,0.0433
1916.00,0.0432
1915.50,0.0432
1915.00,0.0431
1914.50,0.0430
1914.00,0.0429
1913.50,0.0429
1913.00,0.0428
1912.50,0.0427
1912.00,0.0426
1911.50,0.0425
1911.00,0.0424
1910.50,0.0423
1910.00,0.0423
1909.50,0.0422
1909.00,0.0421
1908.50,0.0421
1908.00,0.0420
1907.50,0.0420
1907.00,0.0419
1906.50,0.0419
1906.00,0.0418
1905.50,0.0418
1905.00,0.0417
1904.50,0.0417
1904.00,0.0417
1903.50,0.0416
1903.00,0.0416
1902.50,0.0416
1902.00,0.0415
1901.50,0.0415
1901.00,0.0415
1900.50,0.0414
1900.00,0.0414
1899.50,0.0414
1899.00,0.0414
1898.50,0.0414
1898.00,0.0414
1897.50,0.0414
1897.00,0.0414
1896.50,0.0414
1896.00,0.0414
1895.50,0.0413
1895.00,0.0413
1894.50,0.0413
1894.00,0.0413
1893.50,0.0413
1893.00,0.0413
1892.50,0.0413
1892.00,0.0413
1891.50,0.0413
1891.00,0.0413
1890.50,0.0413
1890.00,0.0413
1889.50,0.0413
1889.00,0.0413
1888.50,0.0413
1888.00,0.0413
1887.50,0.0413
1887.00,0.0413
1886.50,0.0413
1886.00,0.0413
1885.50,0.0413
1885.00,0.0413
1884.50,0.0413
1884.00,0.0413
1883.50,0.0413
1883.00,0.0413
1882.50,0.0413
1882.00,0.0413
1881.50,0.0413
1881.00,0.0414
1880.50,0.0414
1880.00,0.0414
1879.50,0.0414
1879.00,0.0414
1878.50,0.0414
1878.00,0.0414
1877.50,0.0414
1877.00,0.0414
1876.50,0.0414
1876.00,0.0414
1875.50,0.0414
1875.00,0.0414
1874.50,0.0414
1874.00,0.0415
1873.50,0.0415
1873.00,0.0415
1872.50,0.0415
1872.00,0.0415
1871.50,0.0415
1871.00,0.0415
1870.50,0.0415
1870.00,0.0414
1869.50,0.0415
1869.00,0.0415
1868.50,0.0415
1868.00,0.0414
1867.50,0.0414
1867.00,0.0414
1866.50,0.0414
1866.00,0.0414
1865.50,0.0415
1865.00,0.0415
1864.50,0.0415
1864.00,0.0415
1863.50,0.0415
1863.00,0.0415
1862.50,0.0415
1862.00,0.0415
1861.50,0.0415
1861.00,0.0415
1860.50,0.0414
1860.00,0.0414
1859.50,0.0414
1859.00,0.0414
1858.50,0.0414
1858.00,0.0414
1857.50,0.0414
1857.00,0.0415
1856.50,0.0415
1856.00,0.0415
1855.50,0.0415
1855.00,0.0415
1854.50,0.0415
1854.00,0.0415
1853.50,0.0415
1853.00,0.0415
1852.50,0.0415
1852.00,0.0415
1851.50,0.0415
1851.00,0.0415
1850.50,0.0415
1850.00,0.0415
1849.50,0.0415
1849.00,0.0415
1848.50,0.0415
1848.00,0.0414
1847.50,0.0414
1847.00,0.0414
1846.50,0.0414
1846.00,0.0414
1845.50,0.0413
1845.00,0.0413
1844.50,0.0413
1844.00,0.0414
1843.50,0.0414
1843.00,0.0414
1842.50,0.0414
1842.00,0.0413
1841.50,0.0413
1841.00,0.0413
1840.50,0.0413
1840.00,0.0413
1839.50,0.0414
1839.00,0.0414
1838.50,0.0414
1838.00,0.0413
1837.50,0.0413
1837.00,0.0413
1836.50,0.0413
1836.00,0.0413
1835.50,0.0413
1835.00,0.0413
1834.50,0.0413
1834.00,0.0414
1833.50,0.0414
1833.00,0.0414
1832.50,0.0414
1832.00,0.0414
1831.50,0.0413
1831.00,0.0413
1830.50,0.0413
1830.00,0.0413
1829.50,0.0413
1829.00,0.0413
1828.50,0.0414
1828.00,0.0414
1827.50,0.0415
1827.00,0.0415
1826.50,0.0415
1826.00,0.0415
1825.50,0.0415
1825.00,0.0415
1824.50,0.0416
1824.00,0.0416
1823.50,0.0416
1823.00,0.0416
1822.50,0.0417
1822.00,0.0417
1821.50,0.0417
1821.00,0.0418
1820.50,0.0418
1820.00,0.0418
1819.50,0.0419
1819.00,0.0419
1818.50,0.0420
1818.00,0.0420
1817.50,0.0420
1817.00,0.0421
1816.50,0.0421
1816.00,0.0421
1815.50,0.0422
1815.00,0.0422
1814.50,0.0423
1814.00,0.0423
1813.50,0.0424
1813.00,0.0424
1812.50,0.0424
1812.00,0.0425
1811.50,0.0425
1811.00,0.0425
1810.50,0.0425
1810.00,0.0426
1809.50,0.0426
1809.00,0.0427
1808.50,0.0428
1808.00,0.0428
1807.50,0.0429
1807.00,0.0429
1806.50,0.0429
1806.00,0.0430
1805.50,0.0430
1805.00,0.0431
1804.50,0.0431
1804.00,0.0432
1803.50,0.0432
1803.00,0.0433
1802.50,0.0433
1802.00,0.0434
1801.50,0.0434
1801.00,0.0434
1800.50,0.0435
1800.00,0.0435
1799.50,0.0435
1799.00,0.0436
1798.50,0.0436
1798.00,0.0437
1797.50,0.0438
1797.00,0.0438
1796.50,0.0439
1796.00,0.0439
1795.50,0.0439
1795.00,0.0440
1794.50,0.0441
1794.00,0.0441
1793.50,0.0441
1793.00,0.0442
1792.50,0.0442
1792.00,0.0443
1791.50,0.0443
1791.00,0.0443
1790.50,0.0444
1790.00,0.0444
1789.50,0.0445
1789.00,0.0445
1788.50,0.0445
1788.00,0.0446
1787.50,0.0446
1787.00,0.0447
1786.50,0.0447
1786.00,0.0447
1785.50,0.0448
1785.00,0.0448
1784.50,0.0448
1784.00,0.0448
1783.50,0.0449
1783.00,0.0449
1782.50,0.0449
1782.00,0.0449
1781.50,0.0449
1781.00,0.0449
1780.50,0.0449
1780.00,0.0449
1779.50,0.0450
1779.00,0.0450
1778.50,0.0450
1778.00,0.0450
1777.50,0.0450
1777.00,0.0450
1776.50,0.0450
1776.00,0.0450
1775.50,0.0450
1775.00,0.0450
1774.50,0.0450
1774.00,0.0450
1773.50,0.0450
1773.00,0.0450
1772.50,0.0450
1772.00,0.0449
1771.50,0.0448
1771.00,0.0448
1770.50,0.0449
1770.00,0.0449
1769.50,0.0449
1769.00,0.0449
1768.50,0.0449
1768.00,0.0450
1767.50,0.0450
1767.00,0.0449
1766.50,0.0449
1766.00,0.0449
1765.50,0.0449
1765.00,0.0449
1764.50,0.0449
1764.00,0.0449
1763.50,0.0449
1763.00,0.0448
1762.50,0.0448
1762.00,0.0448
1761.50,0.0448
1761.00,0.0448
1760.50,0.0448
1760.00,0.0448
1759.50,0.0448
1759.00,0.0448
1758.50,0.0448
1758.00,0.0448
1757.50,0.0448
1757.00,0.0448
1756.50,0.0448
1756.00,0.0448
1755.50,0.0448
1755.00,0.0448
1754.50,0.0448
1754.00,0.0448
1753.50,0.0448
1753.00,0.0449
1752.50,0.0449
1752.00,0.0449
1751.50,0.0450
1751.00,0.0450
1750.50,0.0449
1750.00,0.0449
1749.50,0.0448
1749.00,0.0448
1748.50,0.0448
1748.00,0.0448
1747.50,0.0448
1747.00,0.0449
1746.50,0.0450
1746.00,0.0450
1745.50,0.0451
1745.00,0.0452
1744.50,0.0452
1744.00,0.0453
1743.50,0.0453
1743.00,0.0453
1742.50,0.0453
1742.00,0.0453
1741.50,0.0453
1741.00,0.0453
1740.50,0.0453
1740.00,0.0453
1739.50,0.0453
1739.00,0.0453
1738.50,0.0453
1738.00,0.0453
1737.50,0.0453
1737.00,0.0454
1736.50,0.0454
1736.00,0.0454
1735.50,0.0454
1735.00,0.0455
1734.50,0.0457
1734.00,0.0457
1733.50,0.0456
1733.00,0.0456
1732.50,0.0456
1732.00,0.0456
1731.50,0.0456
1731.00,0.0456
1730.50,0.0457
1730.00,0.0457
1729.50,0.0457
1729.00,0.0457
1728.50,0.0458
1728.00,0.0458
1727.50,0.0458
1727.00,0.0458
1726.50,0.0458
1726.00,0.0458
1725.50,0.0459
1725.00,0.0459
1724.50,0.0459
1724.00,0.0459
1723.50,0.0459
1723.00,0.0459
1722.50,0.0459
1722.00,0.0459
1721.50,0.0459
1721.00,0.0459
1720.50,0.0459
1720.00,0.0459
1719.50,0.0460
1719.00,0.0460
1718.50,0.0459
1718.00,0.0458
1717.50,0.0459
1717.00,0.0459
1716.50,0.0460
1716.00,0.0459
1715.50,0.0458
1715.00,0.0458
1714.50,0.0458
1714.00,0.0457
1713.50,0.0457
1713.00,0.0458
1712.50,0.0458
1712.00,0.0457
1711.50,0.0457
1711.00,0.0457
1710.50,0.0457
1710.00,0.0457
1709.50,0.0457
1709.00,0.0457
1708.50,0.0457
1708.00,0.0457
1707.50,0.0457
1707.00,0.0457
1706.50,0.0456
1706.00,0.0456
1705.50,0.0456
1705.00,0.0456
1704.50,0.0456
1704.00,0.0456
1703.50,0.0457
1703.00,0.0457
1702.50,0.0457
1702.00,0.0457
1701.50,0.0457
1701.00,0.0458
1700.50,0.0459
1700.00,0.0456
1699.50,0.0457
1699.00,0.0458
1698.50,0.0457
1698.00,0.0457
1697.50,0.0457
1697.00,0.0457
1696.50,0.0458
1696.00,0.0459
1695.50,0.0459
1695.00,0.0459
1694.50,0.0459
1694.00,0.0458
1693.50,0.0458
1693.00,0.0458
1692.50,0.0459
1692.00,0.0459
1691.50,0.0459
1691.00,0.0460
1690.50,0.0460
1690.00,0.0460
1689.50,0.0460
1689.00,0.0460
1688.50,0.0460
1688.00,0.0460
1687.50,0.0460
1687.00,0.0461
1686.50,0.0461
1686.00,0.0461
1685.50,0.0461
1685.00,0.0463
1684.50,0.0463
1684.00,0.0461
1683.50,0.0459
1683.00,0.0460
1682.50,0.0461
1682.00,0.0462
1681.50,0.0463
1681.00,0.0463
1680.50,0.0464
1680.00,0.0464
1679.50,0.0464
1679.00,0.0465
1678.50,0.0465
1678.00,0.0466
1677.50,0.0466
1677.00,0.0467
1676.50,0.0467
1676.00,0.0467
1675.50,0.0468
1675.00,0.0468
1674.50,0.0468
1674.00,0.0469
1673.50,0.0469
1673.00,0.0469
1672.50,0.0469
1672.00,0.0470
1671.50,0.0470
1671.00,0.0471
1670.50,0.0471
1670.00,0.0471
1669.50,0.0472
1669.00,0.0473
1668.50,0.0473
1668.00,0.0474
1667.50,0.0474
1667.00,0.0475
1666.50,0.0475
1666.00,0.0476
1665.50,0.0476
1665.00,0.0477
1664.50,0.0477
1664.00,0.0477
1663.50,0.0478
1663.00,0.0478
1662.50,0.0478
1662.00,0.0479
1661.50,0.0480
1661.00,0.0480
1660.50,0.0481
1660.00,0.0481
1659.50,0.0482
1659.00,0.0483
1658.50,0.0483
1658.00,0.0484
1657.50,0.0484
1657.00,0.0485
1656.50,0.0485
1656.00,0.0485
1655.50,0.0485
1655.00,0.0486
1654.50,0.0487
1654.00,0.0487
1653.50,0.0487
1653.00,0.0487
1652.50,0.0486
1652.00,0.0488
1651.50,0.0490
1651.00,0.0490
1650.50,0.0490
1650.00,0.0490
1649.50,0.0491
1649.00,0.0491
1648.50,0.0492
1648.00,0.0492
1647.50,0.0492
1647.00,0.0492
1646.50,0.0492
1646.00,0.0493
1645.50,0.0494
1645.00,0.0495
1644.50,0.0495
1644.00,0.0495
1643.50,0.0495
1643.00,0.0496
1642.50,0.0497
1642.00,0.0497
1641.50,0.0498
1641.00,0.0498
1640.50,0.0498
1640.00,0.0499
1639.50,0.0499
1639.00,0.0500
1638.50,0.0500
1638.00,0.0500
1637.50,0.0500
1637.00,0.0501
1636.50,0.0501
1636.00,0.0502
1635.50,0.0502
1635.00,0.0501
1634.50,0.0502
1634.00,0.0502
1633.50,0.0503
1633.00,0.0503
1632.50,0.0504
1632.00,0.0505
1631.50,0.0505
1631.00,0.0506
1630.50,0.0506
1630.00,0.0507
1629.50,0.0507
1629.00,0.0507
1628.50,0.0507
1628.00,0.0507
1627.50,0.0508
1627.00,0.0508
1626.50,0.0509
1626.00,0.0510
1625.50,0.0511
1625.00,0.0511
1624.50,0.0512
1624.00,0.0512
1623.50,0.0513
1623.00,0.0513
1622.50,0.0513
1622.00,0.0514
1621.50,0.0515
1621.00,0.0515
1620.50,0.0516
1620.00,0.0517
1619.50,0.0518
1619.00,0.0518
1618.50,0.0519
1618.00,0.0519
1617.50,0.0520
1617.00,0.0521
1616.50,0.0522
1616.00,0.0522
1615.50,0.0523
1615.00,0.0523
1614.50,0.0523
1614.00,0.0524
1613.50,0.0524
1613.00,0.0525
1612.50,0.0526
1612.00,0.0526
1611.50,0.0527
1611.00,0.0527
1610.50,0.0528
1610.00,0.0528
1609.50,0.0528
1609.00,0.0529
1608.50,0.0529
1608.00,0.0530
1607.50,0.0531
1607.00,0.0531
1606.50,0.0532
1606.00,0.0532
1605.50,0.0533
1605.00,0.0534
1604.50,0.0535
1604.00,0.0535
1603.50,0.0536
1603.00,0.0537
1602.50,0.0538
1602.00,0.0540
1601.50,0.0542
1601.00,0.0544
1600.50,0.0546
1600.00,0.0549
1599.50,0.0553
1599.00,0.0558
1598.50,0.0562
1598.00,0.0566
1597.50,0.0569
1597.00,0.0571
1596.50,0.0570
1596.00,0.0568
1595.50,0.0564
1595.00,0.0560
1594.50,0.0555
1594.00,0.0550
1593.50,0.0546
1593.00,0.0543
1592.50,0.0540
1592.00,0.0538
1591.50,0.0536
1591.00,0.0535
1590.50,0.0533
1590.00,0.0532
1589.50,0.0531
1589.00,0.0530
1588.50,0.0528
1588.00,0.0527
1587.50,0.0527
1587.00,0.0526
1586.50,0.0525
1586.00,0.0524
1585.50,0.0524
1585.00,0.0523
1584.50,0.0522
1584.00,0.0522
1583.50,0.0521
1583.00,0.0520
1582.50,0.0520
1582.00,0.0519
1581.50,0.0518
1581.00,0.0518
1580.50,0.0517
1580.00,0.0516
1579.50,0.0516
1579.00,0.0515
1578.50,0.0515
1578.00,0.0514
1577.50,0.0514
1577.00,0.0514
1576.50,0.0513
1576.00,0.0512
1575.50,0.0511
1575.00,0.0510
1574.50,0.0509
1574.00,0.0508
1573.50,0.0508
1573.00,0.0507
1572.50,0.0507
1572.00,0.0507
1571.50,0.0506
1571.00,0.0506
1570.50,0.0505
1570.00,0.0504
1569.50,0.0503
1569.00,0.0501
1568.50,0.0501
1568.00,0.0501
1567.50,0.0501
1567.00,0.0501
1566.50,0.0501
1566.00,0.0501
1565.50,0.0500
1565.00,0.0500
1564.50,0.0499
1564.00,0.0499
1563.50,0.0498
1563.00,0.0499
1562.50,0.0499
1562.00,0.0499
1561.50,0.0498
1561.00,0.0499
1560.50,0.0501
1560.00,0.0502
1559.50,0.0501
1559.00,0.0498
1558.50,0.0496
1558.00,0.0495
1557.50,0.0496
1557.00,0.0497
1556.50,0.0498
1556.00,0.0498
1555.50,0.0497
1555.00,0.0498
1554.50,0.0498
1554.00,0.0498
1553.50,0.0498
1553.00,0.0498
1552.50,0.0497
1552.00,0.0497
1551.50,0.0497
1551.00,0.0497
1550.50,0.0498
1550.00,0.0498
1549.50,0.0497
1549.00,0.0497
1548.50,0.0497
1548.00,0.0497
1547.50,0.0498
1547.00,0.0498
1546.50,0.0498
1546.00,0.0498
1545.50,0.0499
1545.00,0.0498
1544.50,0.0498
1544.00,0.0498
1543.50,0.0498
1543.00,0.0498
1542.50,0.0498
1542.00,0.0499
1541.50,0.0499
1541.00,0.0500
1540.50,0.0500
1540.00,0.0500
1539.50,0.0498
1539.00,0.0498
1538.50,0.0498
1538.00,0.0499
1537.50,0.0499
1537.00,0.0499
1536.50,0.0499
1536.00,0.0500
1535.50,0.0500
1535.00,0.0500
1534.50,0.0500
1534.00,0.0500
1533.50,0.0499
1533.00,0.0499
1532.50,0.0499
1532.00,0.0500
1531.50,0.0500
1531.00,0.0500
1530.50,0.0501
1530.00,0.0501
1529.50,0.0501
1529.00,0.0501
1528.50,0.0501
1528.00,0.0501
1527.50,0.0502
1527.00,0.0502
1526.50,0.0502
1526.00,0.0502
1525.50,0.0502
1525.00,0.0502
1524.50,0.0502
1524.00,0.0502
1523.50,0.0502
1523.00,0.0502
1522.50,0.0502
1522.00,0.0502
1521.50,0.0502
1521.00,0.0502
1520.50,0.0501
1520.00,0.0501
1519.50,0.0501
1519.00,0.0501
1518.50,0.0501
1518.00,0.0501
1517.50,0.0501
1517.00,0.0500
1516.50,0.0500
1516.00,0.0500
1515.50,0.0500
1515.00,0.0500
1514.50,0.0500
1514.00,0.0501
1513.50,0.0501
1513.00,0.0501
1512.50,0.0501
1512.00,0.0501
1511.50,0.0501
1511.00,0.0501
1510.50,0.0501
1510.00,0.0501
1509.50,0.0501
1509.00,0.0502
1508.50,0.0502
1508.00,0.0503
1507.50,0.0504
1507.00,0.0503
1506.50,0.0501
1506.00,0.0500
1505.50,0.0500
1505.00,0.0501
1504.50,0.0501
1504.00,0.0501
1503.50,0.0501
1503.00,0.0502
1502.50,0.0502
1502.00,0.0502
1501.50,0.0502
1501.00,0.0503
1500.50,0.0503
1500.00,0.0503
1499.50,0.0503
1499.00,0.0503
1498.50,0.0503
1498.00,0.0503
1497.50,0.0503
1497.00,0.0504
1496.50,0.0506
1496.00,0.0507
1495.50,0.0507
1495.00,0.0507
1494.50,0.0508
1494.00,0.0508
1493.50,0.0509
1493.00,0.0511
1492.50,0.0512
1492.00,0.0513
1491.50,0.0515
1491.00,0.0516
1490.50,0.0517
1490.00,0.0518
1489.50,0.0520
1489.00,0.0522
1488.50,0.0523
1488.00,0.0525
1487.50,0.0526
1487.00,0.0527
1486.50,0.0528
1486.00,0.0529
1485.50,0.0530
1485.00,0.0531
1484.50,0.0532
1484.00,0.0533
1483.50,0.0535
1483.00,0.0535
1482.50,0.0536
1482.00,0.0536
1481.50,0.0536
1481.00,0.0536
1480.50,0.0537
1480.00,0.0537
1479.50,0.0538
1479.00,0.0538
1478.50,0.0539
1478.00,0.0539
1477.50,0.0540
1477.00,0.0540
1476.50,0.0540
1476.00,0.0540
1475.50,0.0541
1475.00,0.0542
1474.50,0.0543
1474.00,0.0544
1473.50,0.0546
1473.00,0.0547
1472.50,0.0548
1472.00,0.0549
1471.50,0.0551
1471.00,0.0553
1470.50,0.0555
1470.00,0.0557
1469.50,0.0559
1469.00,0.0562
1468.50,0.0565
1468.00,0.0568
1467.50,0.0571
1467.00,0.0574
1466.50,0.0577
1466.00,0.0580
1465.50,0.0584
1465.00,0.0588
1464.50,0.0593
1464.00,0.0597
1463.50,0.0601
1463.00,0.0605
1462.50,0.0610
1462.00,0.0614
1461.50,0.0620
1461.00,0.0625
1460.50,0.0630
1460.00,0.0635
1459.50,0.0640
1459.00,0.0645
1458.50,0.0651
1458.00,0.0655
1457.50,0.0662
1457.00,0.0669
1456.50,0.0676
1456.00,0.0680
1455.50,0.0684
1455.00,0.0688
1454.50,0.0693
1454.00,0.0699
1453.50,0.0705
1453.00,0.0711
1452.50,0.0718
1452.00,0.0726
1451.50,0.0733
1451.00,0.0740
1450.50,0.0747
1450.00,0.0754
1449.50,0.0761
1449.00,0.0768
1448.50,0.0775
1448.00,0.0782
1447.50,0.0787
1447.00,0.0792
1446.50,0.0795
1446.00,0.0797
1445.50,0.0798
1445.00,0.0798
1444.50,0.0797
1444.00,0.0795
1443.50,0.0792
1443.00,0.0789
1442.50,0.0784
1442.00,0.0779
1441.50,0.0773
1441.00,0.0768
1440.50,0.0762
1440.00,0.0756
1439.50,0.0750
1439.00,0.0745
1438.50,0.0741
1438.00,0.0737
1437.50,0.0733
1437.00,0.0729
1436.50,0.0722
1436.00,0.0718
1435.50,0.0716
1435.00,0.0714
1434.50,0.0713
1434.00,0.0713
1433.50,0.0713
1433.00,0.0714
1432.50,0.0715
1432.00,0.0716
1431.50,0.0718
1431.00,0.0721
1430.50,0.0724
1430.00,0.0728
1429.50,0.0734
1429.00,0.0740
1428.50,0.0747
1428.00,0.0753
1427.50,0.0762
1427.00,0.0771
1426.50,0.0781
1426.00,0.0792
1425.50,0.0804
1425.00,0.0817
1424.50,0.0832
1424.00,0.0850
1423.50,0.0869
1423.00,0.0888
1422.50,0.0907
1422.00,0.0927
1421.50,0.0948
1421.00,0.0969
1420.50,0.0989
1420.00,0.1014
1419.50,0.1048
1419.00,0.1082
1418.50,0.1107
1418.00,0.1127
1417.50,0.1147
1417.00,0.1168
1416.50,0.1188
1416.00,0.1207
1415.50,0.1224
1415.00,0.1239
1414.50,0.1251
1414.00,0.1262
1413.50,0.1271
1413.00,0.1277
1412.50,0.1281
1412.00,0.1283
1411.50,0.1284
1411.00,0.1283
1410.50,0.1280
1410.00,0.1276
1409.50,0.1271
1409.00,0.1264
1408.50,0.1256
1408.00,0.1247
1407.50,0.1238
1407.00,0.1228
1406.50,0.1218
1406.00,0.1208
1405.50,0.1197
1405.00,0.1185
1404.50,0.1174
1404.00,0.1165
1403.50,0.1157
1403.00,0.1150
1402.50,0.1143
1402.00,0.1136
1401.50,0.1129
1401.00,0.1121
1400.50,0.1113
1400.00,0.1104
1399.50,0.1091
1399.00,0.1075
1398.50,0.1058
1398.00,0.1042
1397.50,0.1026
1397.00,0.1009
1396.50,0.0991
1396.00,0.0973
1395.50,0.0954
1395.00,0.0932
1394.50,0.0909
1394.00,0.0888
1393.50,0.0872
1393.00,0.0857
1392.50,0.0844
1392.00,0.0830
1391.50,0.0817
1391.00,0.0804
1390.50,0.0793
1390.00,0.0783
1389.50,0.0774
1389.00,0.0766
1388.50,0.0759
1388.00,0.0752
1387.50,0.0744
1387.00,0.0736
1386.50,0.0730
1386.00,0.0726
1385.50,0.0721
1385.00,0.0717
1384.50,0.0713
1384.00,0.0710
1383.50,0.0706
1383.00,0.0702
1382.50,0.0698
1382.00,0.0695
1381.50,0.0691
1381.00,0.0688
1380.50,0.0685
1380.00,0.0683
1379.50,0.0680
1379.00,0.0678
1378.50,0.0676
1378.00,0.0674
1377.50,0.0672
1377.00,0.0671
1376.50,0.0670
1376.00,0.0669
1375.50,0.0668
1375.00,0.0667
1374.50,0.0667
1374.00,0.0666
1373.50,0.0666
1373.00,0.0665
1372.50,0.0665
1372.00,0.0665
1371.50,0.0664
1371.00,0.0662
1370.50,0.0661
1370.00,0.0659
1369.50,0.0657
1369.00,0.0655
1368.50,0.0653
1368.00,0.0652
1367.50,0.0650
1367.00,0.0649
1366.50,0.0648
1366.00,0.0648
1365.50,0.0647
1365.00,0.0646
1364.50,0.0646
1364.00,0.0645
1363.50,0.0645
1363.00,0.0644
1362.50,0.0643
1362.00,0.0643
1361.50,0.0642
1361.00,0.0642
1360.50,0.0642
1360.00,0.0642
1359.50,0.0642
1359.00,0.0642
1358.50,0.0642
1358.00,0.0642
1357.50,0.0641
1357.00,0.0641
1356.50,0.0641
1356.00,0.0641
1355.50,0.0641
1355.00,0.0641
1354.50,0.0642
1354.00,0.0642
1353.50,0.0642
1353.00,0.0642
1352.50,0.0642
1352.00,0.0643
1351.50,0.0643
1351.00,0.0644
1350.50,0.0644
1350.00,0.0645
1349.50,0.0645
1349.00,0.0646
1348.50,0.0646
1348.00,0.0647
1347.50,0.0648
1347.00,0.0648
1346.50,0.0649
1346.00,0.0649
1345.50,0.0650
1345.00,0.0650
1344.50,0.0651
1344.00,0.0651
1343.50,0.0652
1343.00,0.0652
1342.50,0.0652
1342.00,0.0653
1341.50,0.0653
1341.00,0.0653
1340.50,0.0653
1340.00,0.0653
1339.50,0.0653
1339.00,0.0654
1338.50,0.0654
1338.00,0.0655
1337.50,0.0656
1337.00,0.0656
1336.50,0.0657
1336.00,0.0658
1335.50,0.0659
1335.00,0.0660
1334.50,0.0662
1334.00,0.0663
1333.50,0.0665
1333.00,0.0666
1332.50,0.0668
1332.00,0.0669
1331.50,0.0671
1331.00,0.0673
1330.50,0.0675
1330.00,0.0677
1329.50,0.0679
1329.00,0.0681
1328.50,0.0683
1328.00,0.0685
1327.50,0.0687
1327.00,0.0690
1326.50,0.0692
1326.00,0.0694
1325.50,0.0697
1325.00,0.0699
1324.50,0.0702
1324.00,0.0704
1323.50,0.0707
1323.00,0.0710
1322.50,0.0713
1322.00,0.0716
1321.50,0.0719
1321.00,0.0722
1320.50,0.0726
1320.00,0.0729
1319.50,0.0732
1319.00,0.0735
1318.50,0.0739
1318.00,0.0742
1317.50,0.0746
1317.00,0.0749
1316.50,0.0753
1316.00,0.0756
1315.50,0.0760
1315.00,0.0764
1314.50,0.0768
1314.00,0.0772
1313.50,0.0776
1313.00,0.0780
1312.50,0.0784
1312.00,0.0789
1311.50,0.0793
1311.00,0.0797
1310.50,0.0802
1310.00,0.0806
1309.50,0.0811
1309.00,0.0815
1308.50,0.0820
1308.00,0.0825
1307.50,0.0830
1307.00,0.0834
1306.50,0.0839
1306.00,0.0844
1305.50,0.0849
1305.00,0.0855
1304.50,0.0860
1304.00,0.0865
1303.50,0.0871
1303.00,0.0877
1302.50,0.0883
1302.00,0.0889
1301.50,0.0896
1301.00,0.0903
1300.50,0.0909
1300.00,0.0916
1299.50,0.0923
1299.00,0.0930
1298.50,0.0937
1298.00,0.0945
1297.50,0.0953
1297.00,0.0962
1296.50,0.0971
1296.00,0.0979
1295.50,0.0988
1295.00,0.0998
1294.50,0.1007
1294.00,0.1018
1293.50,0.1028
1293.00,0.1039
1292.50,0.1050
1292.00,0.1061
1291.50,0.1073
1291.00,0.1085
1290.50,0.1098
1290.00,0.1111
1289.50,0.1124
1289.00,0.1138
1288.50,0.1152
1288.00,0.1168
1287.50,0.1183
1287.00,0.1200
1286.50,0.1217
1286.00,0.1235
1285.50,0.1254
1285.00,0.1274
1284.50,0.1296
1284.00,0.1318
1283.50,0.1343
1283.00,0.1369
1282.50,0.1396
1282.00,0.1426
1281.50,0.1457
1281.00,0.1492
1280.50,0.1528
1280.00,0.1568
1279.50,0.1611
1279.00,0.1658
1278.50,0.1709
1278.00,0.1765
1277.50,0.1826
1277.00,0.1893
1276.50,0.1967
1276.00,0.2049
1275.50,0.2139
1275.00,0.2239
1274.50,0.2351
1274.00,0.2475
1273.50,0.2614
1273.00,0.2770
1272.50,0.2947
1272.00,0.3150
1271.50,0.3383
1271.00,0.3647
1270.50,0.3950
1270.00,0.4295
1269.50,0.4692
1269.00,0.5143
1268.50,0.5651
1268.00,0.6213
1267.50,0.6829
1267.00,0.7491
1266.50,0.8183
1266.00,0.8886
1265.50,0.9584
1265.00,1.0256
1264.50,1.0874
1264.00,1.1414
1263.50,1.1873
1263.00,1.2246
1262.50,1.2511
1262.00,1.2663
1261.50,1.2721
1261.00,1.2695
1260.50,1.2574
1260.00,1.2367
1259.50,1.2101
1259.00,1.1791
1258.50,1.1430
1258.00,1.1027
1257.50,1.0605
1257.00,1.0178
1256.50,0.9746
1256.00,0.9317
1255.50,0.8904
1255.00,0.8510
1254.50,0.8126
1254.00,0.7745
1253.50,0.7369
1253.00,0.6991
1252.50,0.6604
1252.00,0.6209
1251.50,0.5812
1251.00,0.5422
1250.50,0.5042
1250.00,0.4680
1249.50,0.4344
1249.00,0.4038
1248.50,0.3760
1248.00,0.3510
1247.50,0.3288
1247.00,0.3093
1246.50,0.2920
1246.00,0.2769
1245.50,0.2636
1245.00,0.2519
1244.50,0.2416
1244.00,0.2324
1243.50,0.2243
1243.00,0.2171
1242.50,0.2107
1242.00,0.2050
1241.50,0.1999
1241.00,0.1954
1240.50,0.1913
1240.00,0.1876
1239.50,0.1844
1239.00,0.1815
1238.50,0.1789
1238.00,0.1765
1237.50,0.1744
1237.00,0.1726
1236.50,0.1710
1236.00,0.1695
1235.50,0.1683
1235.00,0.1672
1234.50,0.1663
1234.00,0.1656
1233.50,0.1650
1233.00,0.1645
1232.50,0.1642
1232.00,0.1639
1231.50,0.1638
1231.00,0.1638
1230.50,0.1639
1230.00,0.1641
1229.50,0.1645
1229.00,0.1649
1228.50,0.1654
1228.00,0.1660
1227.50,0.1667
1227.00,0.1676
1226.50,0.1685
1226.00,0.1695
1225.50,0.1705
1225.00,0.1717
1224.50,0.1729
1224.00,0.1742
1223.50,0.1755
1223.00,0.1770
1222.50,0.1786
1222.00,0.1801
1221.50,0.1818
1221.00,0.1836
1220.50,0.1854
1220.00,0.1873
1219.50,0.1892
1219.00,0.1913
1218.50,0.1933
1218.00,0.1954
1217.50,0.1976
1217.00,0.1998
1216.50,0.2021
1216.00,0.2043
1215.50,0.2066
1215.00,0.2090
1214.50,0.2114
1214.00,0.2138
1213.50,0.2162
1213.00,0.2187
1212.50,0.2212
1212.00,0.2236
1211.50,0.2261
1211.00,0.2286
1210.50,0.2311
1210.00,0.2336
1209.50,0.2361
1209.00,0.2385
1208.50,0.2410
1208.00,0.2434
1207.50,0.2458
1207.00,0.2482
1206.50,0.2506
1206.00,0.2529
1205.50,0.2552
1205.00,0.2575
1204.50,0.2597
1204.00,0.2619
1203.50,0.2641
1203.00,0.2662
1202.50,0.2683
1202.00,0.2704
1201.50,0.2724
1201.00,0.2744
1200.50,0.2763
1200.00,0.2782
1199.50,0.2800
1199.00,0.2818
1198.50,0.2836
1198.00,0.2853
1197.50,0.2870
1197.00,0.2887
1196.50,0.2903
1196.00,0.2918
1195.50,0.2933
1195.00,0.2949
1194.50,0.2963
1194.00,0.2977
1193.50,0.2991
1193.00,0.3004
1192.50,0.3018
1192.00,0.3030
1191.50,0.3042
1191.00,0.3054
1190.50,0.3067
1190.00,0.3078
1189.50,0.3090
1189.00,0.3102
1188.50,0.3113
1188.00,0.3123
1187.50,0.3134
1187.00,0.3145
1186.50,0.3155
1186.00,0.3165
1185.50,0.3175
1185.00,0.3185
1184.50,0.3195
1184.00,0.3204
1183.50,0.3213
1183.00,0.3223
1182.50,0.3233
1182.00,0.3242
1181.50,0.3252
1181.00,0.3262
1180.50,0.3272
1180.00,0.3281
1179.50,0.3291
1179.00,0.3301
1178.50,0.3311
1178.00,0.3321
1177.50,0.3332
1177.00,0.3343
1176.50,0.3354
1176.00,0.3364
1175.50,0.3375
1175.00,0.3387
1174.50,0.3398
1174.00,0.3409
1173.50,0.3421
1173.00,0.3433
1172.50,0.3444
1172.00,0.3455
1171.50,0.3466
1171.00,0.3478
1170.50,0.3489
1170.00,0.3500
1169.50,0.3512
1169.00,0.3524
1168.50,0.3536
1168.00,0.3548
1167.50,0.3561
1167.00,0.3575
1166.50,0.3589
1166.00,0.3602
1165.50,0.3616
1165.00,0.3631
1164.50,0.3646
1164.00,0.3661
1163.50,0.3677
1163.00,0.3694
1162.50,0.3710
1162.00,0.3727
1161.50,0.3745
1161.00,0.3763
1160.50,0.3782
1160.00,0.3800
1159.50,0.3820
1159.00,0.3840
1158.50,0.3861
1158.00,0.3881
1157.50,0.3903
1157.00,0.3925
1156.50,0.3948
1156.00,0.3971
1155.50,0.3995
1155.00,0.4020
1154.50,0.4046
1154.00,0.4072
1153.50,0.4098
1153.00,0.4127
1152.50,0.4155
1152.00,0.4183
1151.50,0.4213
1151.00,0.4244
1150.50,0.4276
1150.00,0.4308
1149.50,0.4342
1149.00,0.4377
1148.50,0.4412
1148.00,0.4447
1147.50,0.4484
1147.00,0.4523
1146.50,0.4563
1146.00,0.4603
1145.50,0.4645
1145.00,0.4689
1144.50,0.4734
1144.00,0.4779
1143.50,0.4827
1143.00,0.4877
1142.50,0.4927
1142.00,0.4978
1141.50,0.5031
1141.00,0.5087
1140.50,0.5143
1140.00,0.5200
1139.50,0.5260
1139.00,0.5321
1138.50,0.5384
1138.00,0.5447
1137.50,0.5512
1137.00,0.5579
1136.50,0.5648
1136.00,0.5718
1135.50,0.5791
1135.00,0.5867
1134.50,0.5944
1134.00,0.6023
1133.50,0.6105
1133.00,0.6192
1132.50,0.6281
1132.00,0.6372
1131.50,0.6466
1131.00,0.6566
1130.50,0.6668
1130.00,0.6771
1129.50,0.6879
1129.00,0.6992
1128.50,0.7106
1128.00,0.7222
1127.50,0.7343
1127.00,0.7470
1126.50,0.7598
1126.00,0.7728
1125.50,0.7863
1125.00,0.8004
1124.50,0.8146
1124.00,0.8290
1123.50,0.8439
1123.00,0.8595
1122.50,0.8751
1122.00,0.8907
1121.50,0.9069
1121.00,0.9236
1120.50,0.9404
1120.00,0.9571
1119.50,0.9743
1119.00,0.9921
1118.50,1.0099
1118.00,1.0275
1117.50,1.0455
1117.00,1.0642
1116.50,1.0827
1116.00,1.1008
1115.50,1.1193
1115.00,1.1384
1114.50,1.1571
1114.00,1.1752
1113.50,1.1937
1113.00,1.2129
1112.50,1.2316
1112.00,1.2495
1111.50,1.2679
1111.00,1.2870
1110.50,1.3053
1110.00,1.3224
1109.50,1.3399
1109.00,1.3581
1108.50,1.3755
1108.00,1.3915
1107.50,1.4081
1107.00,1.4258
1106.50,1.4425
1106.00,1.4575
1105.50,1.4729
1105.00,1.4892
1104.50,1.5044
1104.00,1.5178
1103.50,1.5319
1103.00,1.5470
1102.50,1.5607
1102.00,1.5723
1101.50,1.5846
1101.00,1.5981
1100.50,1.6099
1100.00,1.6192
1099.50,1.6292
1099.00,1.6408
1098.50,1.6504
1098.00,1.6575
1097.50,1.6655
1097.00,1.6753
1096.50,1.6833
1096.00,1.6886
1095.50,1.6949
1095.00,1.7031
1094.50,1.7094
1094.00,1.7128
1093.50,1.7170
1093.00,1.7230
1092.50,1.7271
1092.00,1.7285
1091.50,1.7314
1091.00,1.7361
1090.50,1.7383
1090.00,1.7374
1089.50,1.7379
1089.00,1.7407
1088.50,1.7414
1088.00,1.7391
1087.50,1.7380
1087.00,1.7394
1086.50,1.7391
1086.00,1.7360
1085.50,1.7342
1085.00,1.7344
1084.50,1.7327
1084.00,1.7283
1083.50,1.7251
1083.00,1.7241
1082.50,1.7212
1082.00,1.7157
1081.50,1.7113
1081.00,1.7089
1080.50,1.7050
1080.00,1.6989
1079.50,1.6944
1079.00,1.6919
1078.50,1.6877
1078.00,1.6809
1077.50,1.6755
1077.00,1.6724
1076.50,1.6679
1076.00,1.6612
1075.50,1.6557
1075.00,1.6521
1074.50,1.6473
1074.00,1.6403
1073.50,1.6344
1073.00,1.6302
1072.50,1.6249
1072.00,1.6177
1071.50,1.6115
1071.00,1.6072
1070.50,1.6018
1070.00,1.5947
1069.50,1.5887
1069.00,1.5843
1068.50,1.5789
1068.00,1.5721
1067.50,1.5665
1067.00,1.5623
1066.50,1.5569
1066.00,1.5496
1065.50,1.5434
1065.00,1.5391
1064.50,1.5340
1064.00,1.5273
1063.50,1.5213
1063.00,1.5166
1062.50,1.5111
1062.00,1.5045
1061.50,1.4988
1061.00,1.4944
1060.50,1.4894
1060.00,1.4832
1059.50,1.4779
1059.00,1.4736
1058.50,1.4684
1058.00,1.4618
1057.50,1.4563
1057.00,1.4523
1056.50,1.4477
1056.00,1.4420
1055.50,1.4370
1055.00,1.4332
1054.50,1.4287
1054.00,1.4231
1053.50,1.4182
1053.00,1.4148
1052.50,1.4108
1052.00,1.4058
1051.50,1.4017
1051.00,1.3989
1050.50,1.3957
1050.00,1.3916
1049.50,1.3884
1049.00,1.3865
1048.50,1.3838
1048.00,1.3801
1047.50,1.3774
1047.00,1.3760
1046.50,1.3742
1046.00,1.3717
1045.50,1.3701
1045.00,1.3696
1044.50,1.3687
1044.00,1.3671
1043.50,1.3662
1043.00,1.3664
1042.50,1.3660
1042.00,1.3649
1041.50,1.3645
1041.00,1.3653
1040.50,1.3659
1040.00,1.3658
1039.50,1.3664
1039.00,1.3681
1038.50,1.3695
1038.00,1.3700
1037.50,1.3712
1037.00,1.3734
1036.50,1.3751
1036.00,1.3760
1035.50,1.3775
1035.00,1.3803
1034.50,1.3828
1034.00,1.3844
1033.50,1.3867
1033.00,1.3899
1032.50,1.3925
1032.00,1.3942
1031.50,1.3965
1031.00,1.3997
1030.50,1.4026
1030.00,1.4046
1029.50,1.4073
1029.00,1.4111
1028.50,1.4145
1028.00,1.4170
1027.50,1.4200
1027.00,1.4238
1026.50,1.4268
1026.00,1.4287
1025.50,1.4310
1025.00,1.4341
1024.50,1.4365
1024.00,1.4377
1023.50,1.4392
1023.00,1.4413
1022.50,1.4425
1022.00,1.4423
1021.50,1.4423
1021.00,1.4428
1020.50,1.4422
1020.00,1.4400
1019.50,1.4375
1019.00,1.4348
1018.50,1.4304
1018.00,1.4240
1017.50,1.4170
1017.00,1.4096
1016.50,1.4003
1016.00,1.3888
1015.50,1.3766
1015.00,1.3641
1014.50,1.3499
1014.00,1.3336
1013.50,1.3164
1013.00,1.2987
1012.50,1.2796
1012.00,1.2588
1011.50,1.2376
1011.00,1.2164
1010.50,1.1944
1010.00,1.1716
1009.50,1.1490
1009.00,1.1268
1008.50,1.1044
1008.00,1.0819
1007.50,1.0600
1007.00,1.0390
1006.50,1.0182
1006.00,0.9976
1005.50,0.9779
1005.00,0.9591
1004.50,0.9408
1004.00,0.9230
1003.50,0.9061
1003.00,0.8901
1002.50,0.8747
1002.00,0.8598
1001.50,0.8458
1001.00,0.8327
1000.50,0.8202
1000.00,0.8081
999.50,0.7968
999.00,0.7863
998.50,0.7764
998.00,0.7670
997.50,0.7582
997.00,0.7501
996.50,0.7423
996.00,0.7349
995.50,0.7280
995.00,0.7217
994.50,0.7157
994.00,0.7100
993.50,0.7047
993.00,0.6999
992.50,0.6954
992.00,0.6910
991.50,0.6869
991.00,0.6833
990.50,0.6798
990.00,0.6765
989.50,0.6734
989.00,0.6707
988.50,0.6682
988.00,0.6658
987.50,0.6636
987.00,0.6618
986.50,0.6600
986.00,0.6582
985.50,0.6567
985.00,0.6554
984.50,0.6543
984.00,0.6532
983.50,0.6523
983.00,0.6516
982.50,0.6510
982.00,0.6505
981.50,0.6501
981.00,0.6499
980.50,0.6498
980.00,0.6497
979.50,0.6498
979.00,0.6501
978.50,0.6504
978.00,0.6508
977.50,0.6512
977.00,0.6518
976.50,0.6524
976.00,0.6531
975.50,0.6539
975.00,0.6549
974.50,0.6559
974.00,0.6569
973.50,0.6580
973.00,0.6593
972.50,0.6606
972.00,0.6619
971.50,0.6633
971.00,0.6649
970.50,0.6665
970.00,0.6680
969.50,0.6696
969.00,0.6714
968.50,0.6732
968.00,0.6751
967.50,0.6770
967.00,0.6791
966.50,0.6812
966.00,0.6833
965.50,0.6855
965.00,0.6879
964.50,0.6902
964.00,0.6925
963.50,0.6949
963.00,0.6975
962.50,0.7001
962.00,0.7026
961.50,0.7053
961.00,0.7081
960.50,0.7109
960.00,0.7136
959.50,0.7163
959.00,0.7193
958.50,0.7221
958.00,0.7249
957.50,0.7277
957.00,0.7307
956.50,0.7335
956.00,0.7361
955.50,0.7387
955.00,0.7415
954.50,0.7443
954.00,0.7468
953.50,0.7494
953.00,0.7519
952.50,0.7544
952.00,0.7568
951.50,0.7593
951.00,0.7620
950.50,0.7647
950.00,0.7673
949.50,0.7701
949.00,0.7731
948.50,0.7760
948.00,0.7789
947.50,0.7819
947.00,0.7852
946.50,0.7884
946.00,0.7916
945.50,0.7950
945.00,0.7986
944.50,0.8022
944.00,0.8056
943.50,0.8092
943.00,0.8129
942.50,0.8167
942.00,0.8203
941.50,0.8240
941.00,0.8280
940.50,0.8320
940.00,0.8358
939.50,0.8398
939.00,0.8439
938.50,0.8480
938.00,0.8520
937.50,0.8563
937.00,0.8607
936.50,0.8652
936.00,0.8695
935.50,0.8740
935.00,0.8786
934.50,0.8832
934.00,0.8877
933.50,0.8924
933.00,0.8973
932.50,0.9022
932.00,0.9070
931.50,0.9120
931.00,0.9171
930.50,0.9223
930.00,0.9273
929.50,0.9325
929.00,0.9379
928.50,0.9433
928.00,0.9484
927.50,0.9538
927.00,0.9593
926.50,0.9648
926.00,0.9701
925.50,0.9755
925.00,0.9811
924.50,0.9867
924.00,0.9921
923.50,0.9977
923.00,1.0036
922.50,1.0097
922.00,1.0157
921.50,1.0219
921.00,1.0286
920.50,1.0353
920.00,1.0419
919.50,1.0488
919.00,1.0560
918.50,1.0630
918.00,1.0697
917.50,1.0766
917.00,1.0837
916.50,1.0906
916.00,1.0971
915.50,1.1037
915.00,1.1106
914.50,1.1172
914.00,1.1232
913.50,1.1293
913.00,1.1356
912.50,1.1416
912.00,1.1472
911.50,1.1526
911.00,1.1582
910.50,1.1634
910.00,1.1681
909.50,1.1730
909.00,1.1782
908.50,1.1833
908.00,1.1881
907.50,1.1930
907.00,1.1985
906.50,1.2038
906.00,1.2086
905.50,1.2136
905.00,1.2193
904.50,1.2251
904.00,1.2306
903.50,1.2364
903.00,1.2428
902.50,1.2491
902.00,1.2552
901.50,1.2616
901.00,1.2688
900.50,1.2758
900.00,1.2824
899.50,1.2895
899.00,1.2975
898.50,1.3053
898.00,1.3126
897.50,1.3200
897.00,1.3280
896.50,1.3358
896.00,1.3431
895.50,1.3509
895.00,1.3596
894.50,1.3681
894.00,1.3757
893.50,1.3836
893.00,1.3922
892.50,1.4006
892.00,1.4083
891.50,1.4163
891.00,1.4253
890.50,1.4340
890.00,1.4421
889.50,1.4504
889.00,1.4597
888.50,1.4689
888.00,1.4777
887.50,1.4874
887.00,1.4985
886.50,1.5095
886.00,1.5192
885.50,1.5290
885.00,1.5396
884.50,1.5504
884.00,1.5610
883.50,1.5726
883.00,1.5857
882.50,1.5984
882.00,1.6098
881.50,1.6215
881.00,1.6347
880.50,1.6477
880.00,1.6596
879.50,1.6723
879.00,1.6867
878.50,1.7005
878.00,1.7129
877.50,1.7265
877.00,1.7430
876.50,1.7595
876.00,1.7742
875.50,1.7893
875.00,1.8064
874.50,1.8229
874.00,1.8369
873.50,1.8512
873.00,1.8679
872.50,1.8844
872.00,1.8987
871.50,1.9132
871.00,1.9294
870.50,1.9442
870.00,1.9557
869.50,1.9671
869.00,1.9804
868.50,1.9920
868.00,2.0005
867.50,2.0094
867.00,2.0201
866.50,2.0280
866.00,2.0315
865.50,2.0353
865.00,2.0419
864.50,2.0470
864.00,2.0485
863.50,2.0511
863.00,2.0569
862.50,2.0613
862.00,2.0617
861.50,2.0626
861.00,2.0672
860.50,2.0717
860.00,2.0738
859.50,2.0774
859.00,2.0847
858.50,2.0914
858.00,2.0951
857.50,2.0995
857.00,2.1068
856.50,2.1131
856.00,2.1170
855.50,2.1236
855.00,2.1349
854.50,2.1460
854.00,2.1540
853.50,2.1629
853.00,2.1746
852.50,2.1839
852.00,2.1887
851.50,2.1955
851.00,2.2073
850.50,2.2188
850.00,2.2272
849.50,2.2379
849.00,2.2528
848.50,2.2647
848.00,2.2709
847.50,2.2788
847.00,2.2913
846.50,2.3000
846.00,2.3009
845.50,2.3028
845.00,2.3116
844.50,2.3206
844.00,2.3248
843.50,2.3300
843.00,2.3387
842.50,2.3420
842.00,2.3371
841.50,2.3347
841.00,2.3413
840.50,2.3492
840.00,2.3515
839.50,2.3533
839.00,2.3574
838.50,2.3569
838.00,2.3502
837.50,2.3479
837.00,2.3552
836.50,2.3635
836.00,2.3661
835.50,2.3696
835.00,2.3779
834.50,2.3826
834.00,2.3801
833.50,2.3802
833.00,2.3889
832.50,2.3976
832.00,2.4003
831.50,2.4052
831.00,2.4173
830.50,2.4266
830.00,2.4272
829.50,2.4308
829.00,2.4443
828.50,2.4565
828.00,2.4590
827.50,2.4621
827.00,2.4738
826.50,2.4843
826.00,2.4877
825.50,2.4950
825.00,2.5107
824.50,2.5205
824.00,2.5186
823.50,2.5215
823.00,2.5362
822.50,2.5443
822.00,2.5376
821.50,2.5338
821.00,2.5420
820.50,2.5472
820.00,2.5403
819.50,2.5358
819.00,2.5418
818.50,2.5457
818.00,2.5414
817.50,2.5416
817.00,2.5508
816.50,2.5551
816.00,2.5489
815.50,2.5471
815.00,2.5562
814.50,2.5618
814.00,2.5563
813.50,2.5542
813.00,2.5637
812.50,2.5703
812.00,2.5637
811.50,2.5568
811.00,2.5593
810.50,2.5620
810.00,2.5586
809.50,2.5586
809.00,2.5659
808.50,2.5685
808.00,2.5614
807.50,2.5576
807.00,2.5634
806.50,2.5673
806.00,2.5628
805.50,2.5612
805.00,2.5683
804.50,2.5712
804.00,2.5641
803.50,2.5615
803.00,2.5706
802.50,2.5783
802.00,2.5759
801.50,2.5732
801.00,2.5781
800.50,2.5809
800.00,2.5760
799.50,2.5758
799.00,2.5856
798.50,2.5903
798.00,2.5822
797.50,2.5754
797.00,2.5785
796.50,2.5805
796.00,2.5741
795.50,2.5707
795.00,2.5776
794.50,2.5837
794.00,2.5798
793.50,2.5761
793.00,2.5810
792.50,2.5843
792.00,2.5776
791.50,2.5706
791.00,2.5702
790.50,2.5682
790.00,2.5613
789.50,2.5602
789.00,2.5693
788.50,2.5757
788.00,2.5732
787.50,2.5735
787.00,2.5824
786.50,2.5876
786.00,2.5818
785.50,2.5756
785.00,2.5763
784.50,2.5763
784.00,2.5712
783.50,2.5705
783.00,2.5784
782.50,2.5818
782.00,2.5730
781.50,2.5643
781.00,2.5652
780.50,2.5676
780.00,2.5645
779.50,2.5642
779.00,2.5723
778.50,2.5791
778.00,2.5777
777.50,2.5775
777.00,2.5843
776.50,2.5882
776.00,2.5829
775.50,2.5793
775.00,2.5844
774.50,2.5877
774.00,2.5823
773.50,2.5775
773.00,2.5811
772.50,2.5858
772.00,2.5843
771.50,2.5827
771.00,2.5849
770.50,2.5810
770.00,2.5696
769.50,2.5658
769.00,2.5769
768.50,2.5893
768.00,2.5903
767.50,2.5864
767.00,2.5866
766.50,2.5850
766.00,2.5771
765.50,2.5721
765.00,2.5761
764.50,2.5812
764.00,2.5803
763.50,2.5798
763.00,2.5860
762.50,2.5933
762.00,2.5955
761.50,2.5969
761.00,2.6000
760.50,2.5969
760.00,2.5863
759.50,2.5810
759.00,2.5855
758.50,2.5880
758.00,2.5809
757.50,2.5737
757.00,2.5751
756.50,2.5786
756.00,2.5777
755.50,2.5782
755.00,2.5837
754.50,2.5872
754.00,2.5854
753.50,2.5869
753.00,2.5947
752.50,2.5977
752.00,2.5903
751.50,2.5826
751.00,2.5823
750.50,2.5832
750.00,2.5810
749.50,2.5833
749.00,2.5933
748.50,2.6006
748.00,2.5980
747.50,2.5938
747.00,2.5939
746.50,2.5910
746.00,2.5832
745.50,2.5813
745.00,2.5894
744.50,2.5956
744.00,2.5929
743.50,2.5909
743.00,2.5962
742.50,2.5997
742.00,2.5939
741.50,2.5875
741.00,2.5893
740.50,2.5937
740.00,2.5949
739.50,2.5986
739.00,2.6072
738.50,2.6111
738.00,2.6037
737.50,2.5940
737.00,2.5904
736.50,2.5880
736.00,2.5839
735.50,2.5858
735.00,2.5955
734.50,2.6010
734.00,2.5968
733.50,2.5944
733.00,2.6020
732.50,2.6117
732.00,2.6139
731.50,2.6124
731.00,2.6126
730.50,2.6094
730.00,2.6008
729.50,2.5970
729.00,2.6025
728.50,2.6077
728.00,2.6061
727.50,2.6064
727.00,2.6157
726.50,2.6234
726.00,2.6187
725.50,2.6094
725.00,2.6067
724.50,2.6070
724.00,2.6026
723.50,2.5961
723.00,2.5929
722.50,2.5907
722.00,2.5873
721.50,2.5882
721.00,2.5945
720.50,2.5970
720.00,2.5933
719.50,2.5934
719.00,2.6031
718.50,2.6132
718.00,2.6152
717.50,2.6143
717.00,2.6161
716.50,2.6151
716.00,2.6079
715.50,2.6023
715.00,2.6065
714.50,2.6149
714.00,2.6179
713.50,2.6171
713.00,2.6171
712.50,2.6151
712.00,2.6106
711.50,2.6113
711.00,2.6197
710.50,2.6259
710.00,2.6225
709.50,2.6168
709.00,2.6170
708.50,2.6201
708.00,2.6207
707.50,2.6225
707.00,2.6284
706.50,2.6304
706.00,2.6234
705.50,2.6150
705.00,2.6117
704.50,2.6097
704.00,2.6070
703.50,2.6085
703.00,2.6152
702.50,2.6185
702.00,2.6151
701.50,2.6129
701.00,2.6172
700.50,2.6200
700.00,2.6163
699.50,2.6139
699.00,2.6179
698.50,2.6206
698.00,2.6144
697.50,2.6070
697.00,2.6069
696.50,2.6094
696.00,2.6073
695.50,2.6039
695.00,2.6056
694.50,2.6101
694.00,2.6112
693.50,2.6112
693.00,2.6128
692.50,2.6109
692.00,2.6031
691.50,2.5970
691.00,2.5987
690.50,2.6033
690.00,2.6034
689.50,2.6010
689.00,2.6024
688.50,2.6076
688.00,2.6161
687.50,2.6309
687.00,2.6476
686.50,2.6526
686.00,2.6434
685.50,2.6334
685.00,2.6311
684.50,2.6316
684.00,2.6297
683.50,2.6297
683.00,2.6366
682.50,2.6427
682.00,2.6377
681.50,2.6267
681.00,2.6209
680.50,2.6211
680.00,2.6214
679.50,2.6216
679.00,2.6238
678.50,2.6233
678.00,2.6162
677.50,2.6086
677.00,2.6069
676.50,2.6106
676.00,2.6153
675.50,2.6194
675.00,2.6265
674.50,2.6342
674.00,2.6386
673.50,2.6420
673.00,2.6449
672.50,2.6424
672.00,2.6331
671.50,2.6252
671.00,2.6241
670.50,2.6262
670.00,2.6266
669.50,2.6210
669.00,2.6070
668.50,2.5790
668.00,2.5620
667.50,2.5822
667.00,2.6125
666.50,2.6315
666.00,2.6398
665.50,2.6405
665.00,2.6385
664.50,2.6331
664.00,2.6263
663.50,2.6239
663.00,2.6284
662.50,2.6333
662.00,2.6360
661.50,2.6416
661.00,2.6512
660.50,2.6575
660.00,2.6543
659.50,2.6468
659.00,2.6450
658.50,2.6479
658.00,2.6498
657.50,2.6499
657.00,2.6490
656.50,2.6443
656.00,2.6366
655.50,2.6335
655.00,2.6389
654.50,2.6468
654.00,2.6492
653.50,2.6477
653.00,2.6510
652.50,2.6617
652.00,2.6743
651.50,2.6855
651.00,2.6905
650.50,2.6809
650.00,2.6580
649.50,2.6344
649.00,2.6221
648.50,2.6200
648.00,2.6220
647.50,2.6293
647.00,2.6427
646.50,2.6567
646.00,2.6637
645.50,2.6607
645.00,2.6548
644.50,2.6510
644.00,2.6463
643.50,2.6398
643.00,2.6359
642.50,2.6379
642.00,2.6469
641.50,2.6611
641.00,2.6723
640.50,2.6736
640.00,2.6639
639.50,2.6527
639.00,2.6499
638.50,2.6509
638.00,2.6455
637.50,2.6381
637.00,2.6408
636.50,2.6521
636.00,2.6596
635.50,2.6513
635.00,2.6366
634.50,2.6370
634.00,2.6504
633.50,2.6545
633.00,2.6421
632.50,2.6311
632.00,2.6374
631.50,2.6555
631.00,2.6715
630.50,2.6789
630.00,2.6805
629.50,2.6776
629.00,2.6661
628.50,2.6472
628.00,2.6262
627.50,2.6097
627.00,2.6033
626.50,2.6092
626.00,2.6278
625.50,2.6532
625.00,2.6743
624.50,2.6840
624.00,2.6827
623.50,2.6730
623.00,2.6601
622.50,2.6494
622.00,2.6454
621.50,2.6502
621.00,2.6615
620.50,2.6768
620.00,2.6937
619.50,2.7054
619.00,2.7077
618.50,2.7036
618.00,2.6943
617.50,2.6793
617.00,2.6608
616.50,2.6460
616.00,2.6416
615.50,2.6478
615.00,2.6590
614.50,2.6689
614.00,2.6756
613.50,2.6776
613.00,2.6751
612.50,2.6687
612.00,2.6597
611.50,2.6533
611.00,2.6526
610.50,2.6567
610.00,2.6668
609.50,2.6784
609.00,2.6848
608.50,2.6846
608.00,2.6779
607.50,2.6663
607.00,2.6604
606.50,2.6658
606.00,2.6765
605.50,2.6842
605.00,2.6886
604.50,2.6944
604.00,2.7002
603.50,2.6961
603.00,2.6844
602.50,2.6879
602.00,2.7073
601.50,2.7018
601.00,2.6609
600.50,2.6201
600.00,2.6051
599.50,2.6180
599.00,2.6444
598.50,2.6723
598.00,2.6981
597.50,2.7142
597.00,2.7188
596.50,2.7197
596.00,2.7194
595.50,2.7118
595.00,2.6933
594.50,2.6711
594.00,2.6586
593.50,2.6588
593.00,2.6676
592.50,2.6862
592.00,2.7128
591.50,2.7287
591.00,2.7253
590.50,2.7084
590.00,2.6860
589.50,2.6675
589.00,2.6553
588.50,2.6531
588.00,2.6652
587.50,2.6813
587.00,2.6926
586.50,2.7078
586.00,2.7239
585.50,2.7150
585.00,2.6800
584.50,2.6492
584.00,2.6451
583.50,2.6622
583.00,2.6794
582.50,2.6871
582.00,2.6920
581.50,2.6935
581.00,2.6908
580.50,2.6927
580.00,2.7024
579.50,2.7121
579.00,2.7071
578.50,2.6855
578.00,2.6644
577.50,2.6581
577.00,2.6714
576.50,2.6977
576.00,2.7194
575.50,2.7187
575.00,2.7025
574.50,2.6904
574.00,2.6829
573.50,2.6707
573.00,2.6574
572.50,2.6550
572.00,2.6733
571.50,2.6999
571.00,2.7158
570.50,2.7271
570.00,2.7372
569.50,2.7281
569.00,2.6966
568.50,2.6650
568.00,2.6534
567.50,2.6619
567.00,2.6814
566.50,2.7112
566.00,2.7469
565.50,2.7595
565.00,2.7388
564.50,2.7082
564.00,2.6848
563.50,2.6705
563.00,2.6633
562.50,2.6698
562.00,2.6943
561.50,2.7203
561.00,2.7354
560.50,2.7489
560.00,2.7600
559.50,2.7477
559.00,2.7140
558.50,2.6889
558.00,2.6869
557.50,2.6920
557.00,2.6848
556.50,2.6737
556.00,2.6709
555.50,2.6713
555.00,2.6723
554.50,2.6807
554.00,2.6992
553.50,2.7081
553.00,2.6976
552.50,2.6919
552.00,2.7066
551.50,2.7239
551.00,2.7270
550.50,2.7273
550.00,2.7362
549.50,2.7341
549.00,2.7112
548.50,2.6958
548.00,2.7036
547.50,2.7152
547.00,2.7116
546.50,2.7030
546.00,2.7050
545.50,2.7113
545.00,2.7136
544.50,2.7171
544.00,2.7181
543.50,2.7041
543.00,2.6817
542.50,2.6718
542.00,2.6835
541.50,2.6960
541.00,2.6966
540.50,2.7015
540.00,2.7157
539.50,2.7136
539.00,2.6816
538.50,2.6467
538.00,2.6337
537.50,2.6336
537.00,2.6347
536.50,2.6453
536.00,2.6687
535.50,2.6883
535.00,2.6966
534.50,2.7158
534.00,2.7559
533.50,2.7742
533.00,2.7452
532.50,2.7081
532.00,2.6914
531.50,2.6809
531.00,2.6607
530.50,2.6510
530.00,2.6678
529.50,2.6878
529.00,2.6903
528.50,2.6907
528.00,2.6991
527.50,2.6906
527.00,2.6567
526.50,2.6327
526.00,2.6483
525.50,2.6828
525.00,2.7023
524.50,2.7174
524.00,2.7381
523.50,2.7230
523.00,2.6678
522.50,2.6305
522.00,2.6368
521.50,2.6579
521.00,2.6564
520.50,2.6463
520.00,2.6551
519.50,2.6700
519.00,2.6692
518.50,2.6655
518.00,2.6755
517.50,2.6787
517.00,2.6606
516.50,2.6551
516.00,2.6818
515.50,2.7045
515.00,2.6976
514.50,2.6887
514.00,2.6997
513.50,2.7047
513.00,2.6844
512.50,2.6707
512.00,2.6969
511.50,2.7330
511.00,2.7247
510.50,2.6922
510.00,2.6801
509.50,2.6774
509.00,2.6525
508.50,2.6210
508.00,2.6089
507.50,2.6069
507.00,2.6032
506.50,2.6094
506.00,2.6299
505.50,2.6387
505.00,2.6231
504.50,2.6168
504.00,2.6461
503.50,2.6713
503.00,2.6469
502.50,2.6150
502.00,2.6172
501.50,2.6248
501.00,2.6169
500.50,2.6293
500.00,2.6898
499.50,2.7557
499.00,2.7568
498.50,2.7297
498.00,2.7384
497.50,2.7570
497.00,2.7394
496.50,2.7108
496.00,2.7078
495.50,2.7173
495.00,2.7018
494.50,2.6733
494.00,2.6692
493.50,2.6763
493.00,2.6651
492.50,2.6555
492.00,2.6738
491.50,2.6852
491.00,2.6628
490.50,2.6403
490.00,2.6280
489.50,2.6057
489.00,2.5775
488.50,2.5694
488.00,2.5963
487.50,2.6235
487.00,2.6091
486.50,2.5864
486.00,2.5904
485.50,2.5946
485.00,2.5800
484.50,2.5747
484.00,2.5970
483.50,2.6225
483.00,2.6338
482.50,2.6581
482.00,2.7066
481.50,2.7372
481.00,2.7132
480.50,2.6723
480.00,2.6566
479.50,2.6425
479.00,2.6161
478.50,2.6204
478.00,2.6752
477.50,2.7188
477.00,2.6918
476.50,2.6580
476.00,2.6658
475.50,2.6648
475.00,2.6198
474.50,2.5821
474.00,2.5826
473.50,2.5824
473.00,2.5635
472.50,2.5784
472.00,2.6609
471.50,2.7336
471.00,2.7145
470.50,2.6807
470.00,2.6815
469.50,2.6528
469.00,2.5799
468.50,2.5418
468.00,2.5747
467.50,2.6232
467.00,2.6219
466.50,2.6300
466.00,2.7049
465.50,2.7604
465.00,2.6983
464.50,2.6291
464.00,2.6416
463.50,2.6940
463.00,2.6965
462.50,2.6806
462.00,2.7196
461.50,2.7627
461.00,2.7273
460.50,2.6790
460.00,2.6956
459.50,2.7253
459.00,2.6814
458.50,2.6281
458.00,2.6386
457.50,2.6699
457.00,2.6508
456.50,2.6298
456.00,2.6484
455.50,2.6462
455.00,2.5963
454.50,2.5708
454.00,2.6117
453.50,2.6493
453.00,2.6019
452.50,2.5618
452.00,2.6005
451.50,2.6339
451.00,2.5791
450.50,2.5231
450.00,2.5352
449.50,2.5642
449.00,2.5362
448.50,2.5029
448.00,2.5429
447.50,2.6354
447.00,2.6767
446.50,2.6613
446.00,2.6561
445.50,2.6368
445.00,2.5789
444.50,2.5400
444.00,2.5683
443.50,2.6267
443.00,2.6373
442.50,2.6361
442.00,2.7190
441.50,2.7965
441.00,2.7128
440.50,2.6123
440.00,2.5817
439.50,2.5785
439.00,2.5621
438.50,2.5548
438.00,2.5856
437.50,2.6030
437.00,2.5606
436.50,2.5413
436.00,2.6013
435.50,2.6441
435.00,2.5753
434.50,2.5056
434.00,2.5208
433.50,2.5821
433.00,2.6105
432.50,2.6364
432.00,2.7208
431.50,2.7598
431.00,2.6462
430.50,2.5391
430.00,2.5203
429.50,2.5347
429.00,2.5306
428.50,2.5691
428.00,2.7261
427.50,2.9038
427.00,2.8358
426.50,2.7154
426.00,2.7304
425.50,2.7423
425.00,2.5899
424.50,2.4853
424.00,2.5171
423.50,2.5825
423.00,2.5400
422.50,2.5112
422.00,2.6324
421.50,2.8051
421.00,2.7270
420.50,2.5561
420.00,2.4861
419.50,2.4612
419.00,2.3431
418.50,2.2884
418.00,2.4075
417.50,2.5679
417.00,2.5746
416.50,2.5524
416.00,2.6299
415.50,2.7003
415.00,2.5831
414.50,2.4519
414.00,2.4360
413.50,2.4567
413.00,2.4261
412.50,2.4354
412.00,2.6480
411.50,3.0461
411.00,2.9496
410.50,2.8142
410.00,2.8991
409.50,2.9939
409.00,2.7836
408.50,2.6187
408.00,2.6516
407.50,2.7470
407.00,2.6982
406.50,2.6046
406.00,2.5858
405.50,2.5230
405.00,2.3847
404.50,2.2695
404.00,2.2504
403.50,2.2773
403.00,2.2728
402.50,2.3108
402.00,2.5023
401.50,2.9890
401.00,3.2863
400.50,2.8246
400.00,2.8000
