Created as New Dataset,Sample 013 By irlear Date Monday, July 06 2009
cm-1,A
4000.00,0.0390
3999.50,0.0390
3999.00,0.0390
3998.50,0.0390
3998.00,0.0390
3997.50,0.0390
3997.00,0.0390
3996.50,0.0390
3996.00,0.0389
3995.50,0.0389
3995.00,0.0389
3994.50,0.0389
3994.00,0.0389
3993.50,0.0389
3993.00,0.0389
3992.50,0.0389
3992.00,0.0389
3991.50,0.0389
3991.00,0.0389
3990.50,0.0389
3990.00,0.0389
3989.50,0.0388
3989.00,0.0388
3988.50,0.0388
3988.00,0.0389
3987.50,0.0389
3987.00,0.0388
3986.50,0.0388
3986.00,0.0388
3985.50,0.0388
3985.00,0.0388
3984.50,0.0387
3984.00,0.0387
3983.50,0.0387
3983.00,0.0388
3982.50,0.0388
3982.00,0.0388
3981.50,0.0388
3981.00,0.0388
3980.50,0.0388
3980.00,0.0388
3979.50,0.0387
3979.00,0.0387
3978.50,0.0387
3978.00,0.0387
3977.50,0.0387
3977.00,0.0387
3976.50,0.0387
3976.00,0.0387
3975.50,0.0387
3975.00,0.0387
3974.50,0.0387
3974.00,0.0387
3973.50,0.0387
3973.00,0.0387
3972.50,0.0387
3972.00,0.0387
3971.50,0.0387
3971.00,0.0387
3970.50,0.0386
3970.00,0.0386
3969.50,0.0386
3969.00,0.0386
3968.50,0.0386
3968.00,0.0386
3967.50,0.0386
3967.00,0.0386
3966.50,0.0386
3966.00,0.0386
3965.50,0.0386
3965.00,0.0386
3964.50,0.0386
3964.00,0.0386
3963.50,0.0386
3963.00,0.0386
3962.50,0.0385
3962.00,0.0385
3961.50,0.0385
3961.00,0.0385
3960.50,0.0385
3960.00,0.0385
3959.50,0.0385
3959.00,0.0385
3958.50,0.0385
3958.00,0.0385
3957.50,0.0385
3957.00,0.0385
3956.50,0.0385
3956.00,0.0385
3955.50,0.0385
3955.00,0.0385
3954.50,0.0385
3954.00,0.0385
3953.50,0.0385
3953.00,0.0385
3952.50,0.0385
3952.00,0.0385
3951.50,0.0384
3951.00,0.0384
3950.50,0.0384
3950.00,0.0384
3949.50,0.0384
3949.00,0.0384
3948.50,0.0384
3948.00,0.0384
3947.50,0.0384
3947.00,0.0384
3946.50,0.0384
3946.00,0.0384
3945.50,0.0384
3945.00,0.0384
3944.50,0.0384
3944.00,0.0384
3943.50,0.0383
3943.00,0.0383
3942.50,0.0383
3942.00,0.0383
3941.50,0.0383
3941.00,0.0383
3940.50,0.0384
3940.00,0.0384
3939.50,0.0384
3939.00,0.0384
3938.50,0.0384
3938.00,0.0384
3937.50,0.0384
3937.00,0.0384
3936.50,0.0384
3936.00,0.0383
3935.50,0.0383
3935.00,0.0383
3934.50,0.0383
3934.00,0.0383
3933.50,0.0383
3933.00,0.0383
3932.50,0.0382
3932.00,0.0382
3931.50,0.0382
3931.00,0.0382
3930.50,0.0382
3930.00,0.0382
3929.50,0.0383
3929.00,0.0383
3928.50,0.0383
3928.00,0.0383
3927.50,0.0383
3927.00,0.0384
3926.50,0.0383
3926.00,0.0383
3925.50,0.0382
3925.00,0.0382
3924.50,0.0382
3924.00,0.0382
3923.50,0.0382
3923.00,0.0382
3922.50,0.0383
3922.00,0.0383
3921.50,0.0383
3921.00,0.0383
3920.50,0.0383
3920.00,0.0383
3919.50,0.0383
3919.00,0.0383
3918.50,0.0382
3918.00,0.0382
3917.50,0.0382
3917.00,0.0383
3916.50,0.0382
3916.00,0.0382
3915.50,0.0382
3915.00,0.0382
3914.50,0.0383
3914.00,0.0383
3913.50,0.0383
3913.00,0.0383
3912.50,0.0383
3912.00,0.0384
3911.50,0.0384
3911.00,0.0384
3910.50,0.0384
3910.00,0.0384
3909.50,0.0384
3909.00,0.0384
3908.50,0.0384
3908.00,0.0384
3907.50,0.0384
3907.00,0.0383
3906.50,0.0383
3906.00,0.0382
3905.50,0.0381
3905.00,0.0380
3904.50,0.0380
3904.00,0.0382
3903.50,0.0383
3903.00,0.0382
3902.50,0.0381
3902.00,0.0381
3901.50,0.0382
3901.00,0.0383
3900.50,0.0381
3900.00,0.0380
3899.50,0.0380
3899.00,0.0382
3898.50,0.0382
3898.00,0.0382
3897.50,0.0382
3897.00,0.0383
3896.50,0.0384
3896.00,0.0384
3895.50,0.0384
3895.00,0.0384
3894.50,0.0384
3894.00,0.0384
3893.50,0.0384
3893.00,0.0383
3892.50,0.0382
3892.00,0.0381
3891.50,0.0381
3891.00,0.0382
3890.50,0.0383
3890.00,0.0384
3889.50,0.0384
3889.00,0.0384
3888.50,0.0385
3888.00,0.0385
3887.50,0.0385
3887.00,0.0383
3886.50,0.0382
3886.00,0.0381
3885.50,0.0382
3885.00,0.0382
3884.50,0.0382
3884.00,0.0382
3883.50,0.0383
3883.00,0.0384
3882.50,0.0384
3882.00,0.0383
3881.50,0.0382
3881.00,0.0382
3880.50,0.0382
3880.00,0.0382
3879.50,0.0383
3879.00,0.0383
3878.50,0.0384
3878.00,0.0385
3877.50,0.0385
3877.00,0.0386
3876.50,0.0386
3876.00,0.0385
3875.50,0.0385
3875.00,0.0384
3874.50,0.0384
3874.00,0.0384
3873.50,0.0384
3873.00,0.0383
3872.50,0.0383
3872.00,0.0383
3871.50,0.0384
3871.00,0.0384
3870.50,0.0384
3870.00,0.0383
3869.50,0.0384
3869.00,0.0384
3868.50,0.0384
3868.00,0.0384
3867.50,0.0385
3867.00,0.0385
3866.50,0.0385
3866.00,0.0384
3865.50,0.0384
3865.00,0.0385
3864.50,0.0385
3864.00,0.0385
3863.50,0.0384
3863.00,0.0384
3862.50,0.0384
3862.00,0.0385
3861.50,0.0386
3861.00,0.0386
3860.50,0.0387
3860.00,0.0387
3859.50,0.0388
3859.00,0.0388
3858.50,0.0388
3858.00,0.0388
3857.50,0.0387
3857.00,0.0387
3856.50,0.0387
3856.00,0.0386
3855.50,0.0383
3855.00,0.0382
3854.50,0.0387
3854.00,0.0392
3853.50,0.0392
3853.00,0.0388
3852.50,0.0386
3852.00,0.0387
3851.50,0.0390
3851.00,0.0391
3850.50,0.0391
3850.00,0.0390
3849.50,0.0391
3849.00,0.0392
3848.50,0.0392
3848.00,0.0392
3847.50,0.0393
3847.00,0.0393
3846.50,0.0393
3846.00,0.0393
3845.50,0.0393
3845.00,0.0394
3844.50,0.0394
3844.00,0.0394
3843.50,0.0395
3843.00,0.0395
3842.50,0.0395
3842.00,0.0395
3841.50,0.0395
3841.00,0.0396
3840.50,0.0396
3840.00,0.0396
3839.50,0.0395
3839.00,0.0394
3838.50,0.0394
3838.00,0.0395
3837.50,0.0397
3837.00,0.0398
3836.50,0.0397
3836.00,0.0396
3835.50,0.0396
3835.00,0.0399
3834.50,0.0400
3834.00,0.0401
3833.50,0.0400
3833.00,0.0400
3832.50,0.0401
3832.00,0.0402
3831.50,0.0402
3831.00,0.0402
3830.50,0.0402
3830.00,0.0402
3829.50,0.0402
3829.00,0.0403
3828.50,0.0404
3828.00,0.0403
3827.50,0.0403
3827.00,0.0403
3826.50,0.0403
3826.00,0.0403
3825.50,0.0403
3825.00,0.0403
3824.50,0.0403
3824.00,0.0404
3823.50,0.0404
3823.00,0.0403
3822.50,0.0403
3822.00,0.0404
3821.50,0.0404
3821.00,0.0402
3820.50,0.0401
3820.00,0.0401
3819.50,0.0402
3819.00,0.0402
3818.50,0.0404
3818.00,0.0404
3817.50,0.0404
3817.00,0.0403
3816.50,0.0403
3816.00,0.0405
3815.50,0.0406
3815.00,0.0406
3814.50,0.0405
3814.00,0.0405
3813.50,0.0406
3813.00,0.0407
3812.50,0.0408
3812.00,0.0408
3811.50,0.0408
3811.00,0.0409
3810.50,0.0409
3810.00,0.0409
3809.50,0.0409
3809.00,0.0409
3808.50,0.0408
3808.00,0.0407
3807.50,0.0408
3807.00,0.0410
3806.50,0.0411
3806.00,0.0411
3805.50,0.0410
3805.00,0.0410
3804.50,0.0410
3804.00,0.0411
3803.50,0.0411
3803.00,0.0411
3802.50,0.0410
3802.00,0.0409
3801.50,0.0410
3801.00,0.0411
3800.50,0.0412
3800.00,0.0412
3799.50,0.0411
3799.00,0.0412
3798.50,0.0413
3798.00,0.0414
3797.50,0.0414
3797.00,0.0414
3796.50,0.0414
3796.00,0.0415
3795.50,0.0415
3795.00,0.0415
3794.50,0.0416
3794.00,0.0417
3793.50,0.0418
3793.00,0.0418
3792.50,0.0419
3792.00,0.0419
3791.50,0.0419
3791.00,0.0420
3790.50,0.0420
3790.00,0.0421
3789.50,0.0421
3789.00,0.0422
3788.50,0.0423
3788.00,0.0423
3787.50,0.0424
3787.00,0.0425
3786.50,0.0426
3786.00,0.0426
3785.50,0.0426
3785.00,0.0427
3784.50,0.0427
3784.00,0.0428
3783.50,0.0429
3783.00,0.0429
3782.50,0.0430
3782.00,0.0431
3781.50,0.0431
3781.00,0.0431
3780.50,0.0431
3780.00,0.0431
3779.50,0.0432
3779.00,0.0432
3778.50,0.0433
3778.00,0.0434
3777.50,0.0435
3777.00,0.0436
3776.50,0.0437
3776.00,0.0438
3775.50,0.0439
3775.00,0.0439
3774.50,0.0440
3774.00,0.0440
3773.50,0.0440
3773.00,0.0441
3772.50,0.0441
3772.00,0.0441
3771.50,0.0442
3771.00,0.0442
3770.50,0.0442
3770.00,0.0442
3769.50,0.0443
3769.00,0.0443
3768.50,0.0443
3768.00,0.0443
3767.50,0.0444
3767.00,0.0444
3766.50,0.0444
3766.00,0.0444
3765.50,0.0445
3765.00,0.0445
3764.50,0.0445
3764.00,0.0445
3763.50,0.0446
3763.00,0.0446
3762.50,0.0446
3762.00,0.0447
3761.50,0.0447
3761.00,0.0447
3760.50,0.0446
3760.00,0.0446
3759.50,0.0446
3759.00,0.0445
3758.50,0.0445
3758.00,0.0444
3757.50,0.0445
3757.00,0.0446
3756.50,0.0446
3756.00,0.0446
3755.50,0.0445
3755.00,0.0445
3754.50,0.0445
3754.00,0.0445
3753.50,0.0445
3753.00,0.0444
3752.50,0.0444
3752.00,0.0445
3751.50,0.0445
3751.00,0.0443
3750.50,0.0440
3750.00,0.0439
3749.50,0.0442
3749.00,0.0443
3748.50,0.0443
3748.00,0.0441
3747.50,0.0440
3747.00,0.0440
3746.50,0.0440
3746.00,0.0438
3745.50,0.0436
3745.00,0.0437
3744.50,0.0437
3744.00,0.0436
3743.50,0.0436
3743.00,0.0436
3742.50,0.0436
3742.00,0.0436
3741.50,0.0436
3741.00,0.0436
3740.50,0.0436
3740.00,0.0435
3739.50,0.0434
3739.00,0.0434
3738.50,0.0434
3738.00,0.0433
3737.50,0.0432
3737.00,0.0432
3736.50,0.0432
3736.00,0.0432
3735.50,0.0430
3735.00,0.0429
3734.50,0.0429
3734.00,0.0431
3733.50,0.0431
3733.00,0.0431
3732.50,0.0433
3732.00,0.0437
3731.50,0.0438
3731.00,0.0438
3730.50,0.0438
3730.00,0.0438
3729.50,0.0439
3729.00,0.0440
3728.50,0.0441
3728.00,0.0441
3727.50,0.0442
3727.00,0.0442
3726.50,0.0443
3726.00,0.0443
3725.50,0.0443
3725.00,0.0443
3724.50,0.0444
3724.00,0.0445
3723.50,0.0446
3723.00,0.0447
3722.50,0.0448
3722.00,0.0449
3721.50,0.0449
3721.00,0.0450
3720.50,0.0450
3720.00,0.0451
3719.50,0.0452
3719.00,0.0453
3718.50,0.0453
3718.00,0.0454
3717.50,0.0455
3717.00,0.0456
3716.50,0.0458
3716.00,0.0459
3715.50,0.0459
3715.00,0.0459
3714.50,0.0460
3714.00,0.0461
3713.50,0.0462
3713.00,0.0462
3712.50,0.0464
3712.00,0.0466
3711.50,0.0466
3711.00,0.0465
3710.50,0.0465
3710.00,0.0466
3709.50,0.0469
3709.00,0.0471
3708.50,0.0472
3708.00,0.0472
3707.50,0.0473
3707.00,0.0474
3706.50,0.0476
3706.00,0.0476
3705.50,0.0477
3705.00,0.0477
3704.50,0.0478
3704.00,0.0479
3703.50,0.0479
3703.00,0.0479
3702.50,0.0479
3702.00,0.0479
3701.50,0.0479
3701.00,0.0479
3700.50,0.0480
3700.00,0.0480
3699.50,0.0480
3699.00,0.0481
3698.50,0.0480
3698.00,0.0480
3697.50,0.0480
3697.00,0.0479
3696.50,0.0478
3696.00,0.0478
3695.50,0.0477
3695.00,0.0477
3694.50,0.0476
3694.00,0.0476
3693.50,0.0476
3693.00,0.0475
3692.50,0.0474
3692.00,0.0473
3691.50,0.0471
3691.00,0.0470
3690.50,0.0468
3690.00,0.0465
3689.50,0.0462
3689.00,0.0461
3688.50,0.0463
3688.00,0.0464
3687.50,0.0465
3687.00,0.0465
3686.50,0.0464
3686.00,0.0464
3685.50,0.0465
3685.00,0.0464
3684.50,0.0464
3684.00,0.0463
3683.50,0.0463
3683.00,0.0463
3682.50,0.0463
3682.00,0.0462
3681.50,0.0462
3681.00,0.0462
3680.50,0.0461
3680.00,0.0461
3679.50,0.0460
3679.00,0.0459
3678.50,0.0459
3678.00,0.0459
3677.50,0.0458
3677.00,0.0458
3676.50,0.0459
3676.00,0.0459
3675.50,0.0457
3675.00,0.0455
3674.50,0.0455
3674.00,0.0456
3673.50,0.0457
3673.00,0.0459
3672.50,0.0460
3672.00,0.0460
3671.50,0.0460
3671.00,0.0461
3670.50,0.0462
3670.00,0.0461
3669.50,0.0460
3669.00,0.0459
3668.50,0.0460
3668.00,0.0462
3667.50,0.0463
3667.00,0.0464
3666.50,0.0465
3666.00,0.0466
3665.50,0.0467
3665.00,0.0467
3664.50,0.0468
3664.00,0.0468
3663.50,0.0469
3663.00,0.0469
3662.50,0.0470
3662.00,0.0470
3661.50,0.0470
3661.00,0.0471
3660.50,0.0471
3660.00,0.0472
3659.50,0.0472
3659.00,0.0473
3658.50,0.0474
3658.00,0.0475
3657.50,0.0475
3657.00,0.0475
3656.50,0.0476
3656.00,0.0478
3655.50,0.0478
3655.00,0.0479
3654.50,0.0480
3654.00,0.0481
3653.50,0.0482
3653.00,0.0482
3652.50,0.0482
3652.00,0.0481
3651.50,0.0481
3651.00,0.0480
3650.50,0.0479
3650.00,0.0478
3649.50,0.0479
3649.00,0.0481
3648.50,0.0483
3648.00,0.0483
3647.50,0.0483
3647.00,0.0483
3646.50,0.0484
3646.00,0.0485
3645.50,0.0485
3645.00,0.0487
3644.50,0.0488
3644.00,0.0489
3643.50,0.0488
3643.00,0.0488
3642.50,0.0488
3642.00,0.0488
3641.50,0.0488
3641.00,0.0488
3640.50,0.0488
3640.00,0.0488
3639.50,0.0488
3639.00,0.0488
3638.50,0.0488
3638.00,0.0487
3637.50,0.0487
3637.00,0.0486
3636.50,0.0486
3636.00,0.0485
3635.50,0.0485
3635.00,0.0485
3634.50,0.0484
3634.00,0.0483
3633.50,0.0483
3633.00,0.0482
3632.50,0.0482
3632.00,0.0482
3631.50,0.0482
3631.00,0.0481
3630.50,0.0480
3630.00,0.0479
3629.50,0.0479
3629.00,0.0476
3628.50,0.0474
3628.00,0.0474
3627.50,0.0475
3627.00,0.0476
3626.50,0.0476
3626.00,0.0476
3625.50,0.0476
3625.00,0.0476
3624.50,0.0476
3624.00,0.0476
3623.50,0.0476
3623.00,0.0475
3622.50,0.0474
3622.00,0.0474
3621.50,0.0473
3621.00,0.0472
3620.50,0.0471
3620.00,0.0471
3619.50,0.0472
3619.00,0.0472
3618.50,0.0471
3618.00,0.0471
3617.50,0.0471
3617.00,0.0471
3616.50,0.0472
3616.00,0.0472
3615.50,0.0472
3615.00,0.0472
3614.50,0.0472
3614.00,0.0472
3613.50,0.0471
3613.00,0.0471
3612.50,0.0471
3612.00,0.0472
3611.50,0.0473
3611.00,0.0473
3610.50,0.0473
3610.00,0.0473
3609.50,0.0474
3609.00,0.0474
3608.50,0.0474
3608.00,0.0473
3607.50,0.0473
3607.00,0.0473
3606.50,0.0473
3606.00,0.0474
3605.50,0.0474
3605.00,0.0475
3604.50,0.0475
3604.00,0.0476
3603.50,0.0476
3603.00,0.0476
3602.50,0.0476
3602.00,0.0476
3601.50,0.0476
3601.00,0.0476
3600.50,0.0476
3600.00,0.0475
3599.50,0.0475
3599.00,0.0476
3598.50,0.0476
3598.00,0.0477
3597.50,0.0477
3597.00,0.0478
3596.50,0.0478
3596.00,0.0478
3595.50,0.0477
3595.00,0.0477
3594.50,0.0477
3594.00,0.0477
3593.50,0.0477
3593.00,0.0477
3592.50,0.0477
3592.00,0.0478
3591.50,0.0478
3591.00,0.0479
3590.50,0.0479
3590.00,0.0478
3589.50,0.0477
3589.00,0.0477
3588.50,0.0476
3588.00,0.0475
3587.50,0.0473
3587.00,0.0471
3586.50,0.0471
3586.00,0.0471
3585.50,0.0472
3585.00,0.0473
3584.50,0.0474
3584.00,0.0475
3583.50,0.0475
3583.00,0.0475
3582.50,0.0474
3582.00,0.0474
3581.50,0.0474
3581.00,0.0474
3580.50,0.0474
3580.00,0.0474
3579.50,0.0474
3579.00,0.0473
3578.50,0.0473
3578.00,0.0473
3577.50,0.0473
3577.00,0.0473
3576.50,0.0472
3576.00,0.0472
3575.50,0.0472
3575.00,0.0472
3574.50,0.0471
3574.00,0.0471
3573.50,0.0470
3573.00,0.0470
3572.50,0.0470
3572.00,0.0470
3571.50,0.0469
3571.00,0.0469
3570.50,0.0468
3570.00,0.0468
3569.50,0.0467
3569.00,0.0466
3568.50,0.0466
3568.00,0.0465
3567.50,0.0464
3567.00,0.0463
3566.50,0.0462
3566.00,0.0462
3565.50,0.0462
3565.00,0.0462
3564.50,0.0463
3564.00,0.0464
3563.50,0.0464
3563.00,0.0464
3562.50,0.0464
3562.00,0.0463
3561.50,0.0463
3561.00,0.0463
3560.50,0.0463
3560.00,0.0463
3559.50,0.0463
3559.00,0.0463
3558.50,0.0463
3558.00,0.0463
3557.50,0.0463
3557.00,0.0463
3556.50,0.0463
3556.00,0.0463
3555.50,0.0463
3555.00,0.0462
3554.50,0.0462
3554.00,0.0462
3553.50,0.0462
3553.00,0.0461
3552.50,0.0460
3552.00,0.0460
3551.50,0.0460
3551.00,0.0460
3550.50,0.0460
3550.00,0.0461
3549.50,0.0461
3549.00,0.0461
3548.50,0.0461
3548.00,0.0460
3547.50,0.0459
3547.00,0.0458
3546.50,0.0457
3546.00,0.0456
3545.50,0.0456
3545.00,0.0456
3544.50,0.0457
3544.00,0.0457
3543.50,0.0457
3543.00,0.0458
3542.50,0.0458
3542.00,0.0459
3541.50,0.0459
3541.00,0.0460
3540.50,0.0460
3540.00,0.0460
3539.50,0.0460
3539.00,0.0460
3538.50,0.0460
3538.00,0.0459
3537.50,0.0459
3537.00,0.0458
3536.50,0.0458
3536.00,0.0458
3535.50,0.0458
3535.00,0.0459
3534.50,0.0460
3534.00,0.0460
3533.50,0.0460
3533.00,0.0460
3532.50,0.0460
3532.00,0.0460
3531.50,0.0460
3531.00,0.0459
3530.50,0.0459
3530.00,0.0459
3529.50,0.0459
3529.00,0.0459
3528.50,0.0458
3528.00,0.0458
3527.50,0.0458
3527.00,0.0458
3526.50,0.0458
3526.00,0.0457
3525.50,0.0457
3525.00,0.0456
3524.50,0.0456
3524.00,0.0456
3523.50,0.0455
3523.00,0.0456
3522.50,0.0456
3522.00,0.0456
3521.50,0.0457
3521.00,0.0457
3520.50,0.0457
3520.00,0.0457
3519.50,0.0457
3519.00,0.0457
3518.50,0.0457
3518.00,0.0457
3517.50,0.0457
3517.00,0.0456
3516.50,0.0456
3516.00,0.0456
3515.50,0.0456
3515.00,0.0455
3514.50,0.0455
3514.00,0.0454
3513.50,0.0454
3513.00,0.0454
3512.50,0.0455
3512.00,0.0455
3511.50,0.0455
3511.00,0.0455
3510.50,0.0455
3510.00,0.0454
3509.50,0.0454
3509.00,0.0454
3508.50,0.0454
3508.00,0.0454
3507.50,0.0454
3507.00,0.0454
3506.50,0.0454
3506.00,0.0453
3505.50,0.0453
3505.00,0.0453
3504.50,0.0452
3504.00,0.0452
3503.50,0.0451
3503.00,0.0450
3502.50,0.0450
3502.00,0.0450
3501.50,0.0450
3501.00,0.0451
3500.50,0.0451
3500.00,0.0451
3499.50,0.0451
3499.00,0.0451
3498.50,0.0450
3498.00,0.0450
3497.50,0.0450
3497.00,0.0450
3496.50,0.0450
3496.00,0.0450
3495.50,0.0449
3495.00,0.0449
3494.50,0.0449
3494.00,0.0449
3493.50,0.0449
3493.00,0.0449
3492.50,0.0449
3492.00,0.0449
3491.50,0.0449
3491.00,0.0449
3490.50,0.0449
3490.00,0.0449
3489.50,0.0448
3489.00,0.0448
3488.50,0.0448
3488.00,0.0447
3487.50,0.0447
3487.00,0.0446
3486.50,0.0446
3486.00,0.0447
3485.50,0.0447
3485.00,0.0447
3484.50,0.0447
3484.00,0.0447
3483.50,0.0447
3483.00,0.0446
3482.50,0.0446
3482.00,0.0446
3481.50,0.0445
3481.00,0.0444
3480.50,0.0444
3480.00,0.0444
3479.50,0.0444
3479.00,0.0444
3478.50,0.0444
3478.00,0.0445
3477.50,0.0445
3477.00,0.0445
3476.50,0.0445
3476.00,0.0444
3475.50,0.0444
3475.00,0.0444
3474.50,0.0444
3474.00,0.0444
3473.50,0.0444
3473.00,0.0444
3472.50,0.0443
3472.00,0.0443
3471.50,0.0443
3471.00,0.0442
3470.50,0.0441
3470.00,0.0441
3469.50,0.0440
3469.00,0.0440
3468.50,0.0440
3468.00,0.0440
3467.50,0.0440
3467.00,0.0440
3466.50,0.0440
3466.00,0.0440
3465.50,0.0440
3465.00,0.0440
3464.50,0.0440
3464.00,0.0440
3463.50,0.0440
3463.00,0.0440
3462.50,0.0440
3462.00,0.0439
3461.50,0.0439
3461.00,0.0438
3460.50,0.0438
3460.00,0.0438
3459.50,0.0438
3459.00,0.0438
3458.50,0.0438
3458.00,0.0438
3457.50,0.0438
3457.00,0.0438
3456.50,0.0438
3456.00,0.0438
3455.50,0.0438
3455.00,0.0438
3454.50,0.0437
3454.00,0.0437
3453.50,0.0437
3453.00,0.0437
3452.50,0.0437
3452.00,0.0436
3451.50,0.0436
3451.00,0.0436
3450.50,0.0436
3450.00,0.0436
3449.50,0.0436
3449.00,0.0435
3448.50,0.0435
3448.00,0.0434
3447.50,0.0434
3447.00,0.0434
3446.50,0.0433
3446.00,0.0433
3445.50,0.0434
3445.00,0.0434
3444.50,0.0434
3444.00,0.0434
3443.50,0.0433
3443.00,0.0433
3442.50,0.0433
3442.00,0.0433
3441.50,0.0433
3441.00,0.0432
3440.50,0.0432
3440.00,0.0432
3439.50,0.0432
3439.00,0.0431
3438.50,0.0431
3438.00,0.0430
3437.50,0.0429
3437.00,0.0429
3436.50,0.0429
3436.00,0.0429
3435.50,0.0428
3435.00,0.0428
3434.50,0.0429
3434.00,0.0429
3433.50,0.0429
3433.00,0.0429
3432.50,0.0429
3432.00,0.0429
3431.50,0.0428
3431.00,0.0428
3430.50,0.0427
3430.00,0.0427
3429.50,0.0427
3429.00,0.0428
3428.50,0.0428
3428.00,0.0428
3427.50,0.0428
3427.00,0.0428
3426.50,0.0428
3426.00,0.0428
3425.50,0.0428
3425.00,0.0428
3424.50,0.0428
3424.00,0.0428
3423.50,0.0427
3423.00,0.0427
3422.50,0.0427
3422.00,0.0427
3421.50,0.0426
3421.00,0.0426
3420.50,0.0426
3420.00,0.0426
3419.50,0.0426
3419.00,0.0426
3418.50,0.0426
3418.00,0.0426
3417.50,0.0426
3417.00,0.0426
3416.50,0.0426
3416.00,0.0425
3415.50,0.0425
3415.00,0.0425
3414.50,0.0425
3414.00,0.0424
3413.50,0.0424
3413.00,0.0424
3412.50,0.0424
3412.00,0.0424
3411.50,0.0424
3411.00,0.0424
3410.50,0.0424
3410.00,0.0423
3409.50,0.0423
3409.00,0.0423
3408.50,0.0423
3408.00,0.0423
3407.50,0.0423
3407.00,0.0423
3406.50,0.0423
3406.00,0.0423
3405.50,0.0423
3405.00,0.0423
3404.50,0.0423
3404.00,0.0422
3403.50,0.0422
3403.00,0.0421
3402.50,0.0421
3402.00,0.0420
3401.50,0.0420
3401.00,0.0420
3400.50,0.0420
3400.00,0.0420
3399.50,0.0420
3399.00,0.0420
3398.50,0.0420
3398.00,0.0421
3397.50,0.0421
3397.00,0.0421
3396.50,0.0421
3396.00,0.0420
3395.50,0.0420
3395.00,0.0420
3394.50,0.0420
3394.00,0.0420
3393.50,0.0419
3393.00,0.0419
3392.50,0.0418
3392.00,0.0418
3391.50,0.0418
3391.00,0.0418
3390.50,0.0419
3390.00,0.0420
3389.50,0.0420
3389.00,0.0420
3388.50,0.0420
3388.00,0.0420
3387.50,0.0420
3387.00,0.0420
3386.50,0.0420
3386.00,0.0420
3385.50,0.0420
3385.00,0.0420
3384.50,0.0420
3384.00,0.0420
3383.50,0.0419
3383.00,0.0419
3382.50,0.0419
3382.00,0.0419
3381.50,0.0419
3381.00,0.0419
3380.50,0.0418
3380.00,0.0418
3379.50,0.0419
3379.00,0.0419
3378.50,0.0419
3378.00,0.0418
3377.50,0.0418
3377.00,0.0418
3376.50,0.0418
3376.00,0.0418
3375.50,0.0418
3375.00,0.0418
3374.50,0.0418
3374.00,0.0418
3373.50,0.0418
3373.00,0.0418
3372.50,0.0418
3372.00,0.0417
3371.50,0.0417
3371.00,0.0416
3370.50,0.0416
3370.00,0.0416
3369.50,0.0416
3369.00,0.0416
3368.50,0.0416
3368.00,0.0416
3367.50,0.0416
3367.00,0.0416
3366.50,0.0416
3366.00,0.0417
3365.50,0.0417
3365.00,0.0417
3364.50,0.0418
3364.00,0.0418
3363.50,0.0418
3363.00,0.0418
3362.50,0.0418
3362.00,0.0417
3361.50,0.0417
3361.00,0.0417
3360.50,0.0417
3360.00,0.0417
3359.50,0.0418
3359.00,0.0418
3358.50,0.0418
3358.00,0.0418
3357.50,0.0418
3357.00,0.0418
3356.50,0.0418
3356.00,0.0418
3355.50,0.0418
3355.00,0.0418
3354.50,0.0418
3354.00,0.0418
3353.50,0.0418
3353.00,0.0417
3352.50,0.0417
3352.00,0.0416
3351.50,0.0416
3351.00,0.0416
3350.50,0.0415
3350.00,0.0416
3349.50,0.0416
3349.00,0.0417
3348.50,0.0417
3348.00,0.0417
3347.50,0.0417
3347.00,0.0417
3346.50,0.0417
3346.00,0.0417
3345.50,0.0417
3345.00,0.0417
3344.50,0.0416
3344.00,0.0416
3343.50,0.0416
3343.00,0.0416
3342.50,0.0416
3342.00,0.0416
3341.50,0.0416
3341.00,0.0416
3340.50,0.0416
3340.00,0.0416
3339.50,0.0415
3339.00,0.0415
3338.50,0.0415
3338.00,0.0415
3337.50,0.0415
3337.00,0.0416
3336.50,0.0416
3336.00,0.0416
3335.50,0.0416
3335.00,0.0416
3334.50,0.0416
3334.00,0.0416
3333.50,0.0416
3333.00,0.0416
3332.50,0.0416
3332.00,0.0416
3331.50,0.0416
3331.00,0.0416
3330.50,0.0416
3330.00,0.0416
3329.50,0.0416
3329.00,0.0416
3328.50,0.0416
3328.00,0.0416
3327.50,0.0415
3327.00,0.0415
3326.50,0.0414
3326.00,0.0414
3325.50,0.0414
3325.00,0.0414
3324.50,0.0415
3324.00,0.0415
3323.50,0.0415
3323.00,0.0415
3322.50,0.0415
3322.00,0.0415
3321.50,0.0415
3321.00,0.0415
3320.50,0.0415
3320.00,0.0415
3319.50,0.0415
3319.00,0.0415
3318.50,0.0415
3318.00,0.0414
3317.50,0.0414
3317.00,0.0414
3316.50,0.0414
3316.00,0.0414
3315.50,0.0414
3315.00,0.0414
3314.50,0.0414
3314.00,0.0414
3313.50,0.0414
3313.00,0.0414
3312.50,0.0414
3312.00,0.0413
3311.50,0.0413
3311.00,0.0413
3310.50,0.0413
3310.00,0.0412
3309.50,0.0412
3309.00,0.0411
3308.50,0.0411
3308.00,0.0411
3307.50,0.0411
3307.00,0.0411
3306.50,0.0411
3306.00,0.0411
3305.50,0.0411
3305.00,0.0411
3304.50,0.0412
3304.00,0.0412
3303.50,0.0412
3303.00,0.0413
3302.50,0.0413
3302.00,0.0413
3301.50,0.0413
3301.00,0.0413
3300.50,0.0413
3300.00,0.0413
3299.50,0.0413
3299.00,0.0413
3298.50,0.0413
3298.00,0.0412
3297.50,0.0412
3297.00,0.0412
3296.50,0.0411
3296.00,0.0411
3295.50,0.0411
3295.00,0.0411
3294.50,0.0412
3294.00,0.0412
3293.50,0.0411
3293.00,0.0411
3292.50,0.0411
3292.00,0.0411
3291.50,0.0411
3291.00,0.0411
3290.50,0.0412
3290.00,0.0412
3289.50,0.0413
3289.00,0.0413
3288.50,0.0413
3288.00,0.0413
3287.50,0.0413
3287.00,0.0413
3286.50,0.0413
3286.00,0.0413
3285.50,0.0413
3285.00,0.0413
3284.50,0.0413
3284.00,0.0413
3283.50,0.0413
3283.00,0.0412
3282.50,0.0412
3282.00,0.0412
3281.50,0.0413
3281.00,0.0413
3280.50,0.0413
3280.00,0.0413
3279.50,0.0413
3279.00,0.0413
3278.50,0.0413
3278.00,0.0413
3277.50,0.0412
3277.00,0.0412
3276.50,0.0412
3276.00,0.0412
3275.50,0.0411
3275.00,0.0411
3274.50,0.0412
3274.00,0.0412
3273.50,0.0412
3273.00,0.0411
3272.50,0.0411
3272.00,0.0411
3271.50,0.0410
3271.00,0.0410
3270.50,0.0411
3270.00,0.0411
3269.50,0.0411
3269.00,0.0412
3268.50,0.0412
3268.00,0.0412
3267.50,0.0413
3267.00,0.0413
3266.50,0.0413
3266.00,0.0413
3265.50,0.0413
3265.00,0.0413
3264.50,0.0413
3264.00,0.0413
3263.50,0.0413
3263.00,0.0413
3262.50,0.0413
3262.00,0.0413
3261.50,0.0413
3261.00,0.0413
3260.50,0.0413
3260.00,0.0413
3259.50,0.0413
3259.00,0.0413
3258.50,0.0413
3258.00,0.0413
3257.50,0.0412
3257.00,0.0412
3256.50,0.0412
3256.00,0.0412
3255.50,0.0412
3255.00,0.0412
3254.50,0.0413
3254.00,0.0413
3253.50,0.0413
3253.00,0.0413
3252.50,0.0413
3252.00,0.0413
3251.50,0.0413
3251.00,0.0413
3250.50,0.0413
3250.00,0.0413
3249.50,0.0413
3249.00,0.0413
3248.50,0.0412
3248.00,0.0412
3247.50,0.0412
3247.00,0.0412
3246.50,0.0412
3246.00,0.0412
3245.50,0.0413
3245.00,0.0413
3244.50,0.0413
3244.00,0.0414
3243.50,0.0414
3243.00,0.0414
3242.50,0.0414
3242.00,0.0414
3241.50,0.0414
3241.00,0.0414
3240.50,0.0414
3240.00,0.0414
3239.50,0.0414
3239.00,0.0414
3238.50,0.0414
3238.00,0.0414
3237.50,0.0414
3237.00,0.0414
3236.50,0.0414
3236.00,0.0414
3235.50,0.0413
3235.00,0.0413
3234.50,0.0413
3234.00,0.0413
3233.50,0.0412
3233.00,0.0413
3232.50,0.0413
3232.00,0.0414
3231.50,0.0414
3231.00,0.0414
3230.50,0.0415
3230.00,0.0415
3229.50,0.0415
3229.00,0.0415
3228.50,0.0415
3228.00,0.0415
3227.50,0.0415
3227.00,0.0415
3226.50,0.0415
3226.00,0.0416
3225.50,0.0416
3225.00,0.0416
3224.50,0.0416
3224.00,0.0416
3223.50,0.0416
3223.00,0.0416
3222.50,0.0416
3222.00,0.0416
3221.50,0.0416
3221.00,0.0416
3220.50,0.0416
3220.00,0.0416
3219.50,0.0416
3219.00,0.0416
3218.50,0.0416
3218.00,0.0416
3217.50,0.0416
3217.00,0.0417
3216.50,0.0417
3216.00,0.0417
3215.50,0.0417
3215.00,0.0417
3214.50,0.0417
3214.00,0.0417
3213.50,0.0417
3213.00,0.0417
3212.50,0.0417
3212.00,0.0417
3211.50,0.0418
3211.00,0.0418
3210.50,0.0418
3210.00,0.0418
3209.50,0.0418
3209.00,0.0418
3208.50,0.0418
3208.00,0.0418
3207.50,0.0418
3207.00,0.0418
3206.50,0.0418
3206.00,0.0418
3205.50,0.0418
3205.00,0.0419
3204.50,0.0419
3204.00,0.0419
3203.50,0.0419
3203.00,0.0419
3202.50,0.0419
3202.00,0.0419
3201.50,0.0419
3201.00,0.0419
3200.50,0.0420
3200.00,0.0420
3199.50,0.0420
3199.00,0.0420
3198.50,0.0420
3198.00,0.0420
3197.50,0.0420
3197.00,0.0420
3196.50,0.0421
3196.00,0.0421
3195.50,0.0421
3195.00,0.0421
3194.50,0.0421
3194.00,0.0422
3193.50,0.0422
3193.00,0.0422
3192.50,0.0422
3192.00,0.0422
3191.50,0.0422
3191.00,0.0423
3190.50,0.0423
3190.00,0.0423
3189.50,0.0423
3189.00,0.0423
3188.50,0.0424
3188.00,0.0424
3187.50,0.0424
3187.00,0.0425
3186.50,0.0425
3186.00,0.0425
3185.50,0.0425
3185.00,0.0425
3184.50,0.0425
3184.00,0.0425
3183.50,0.0425
3183.00,0.0425
3182.50,0.0425
3182.00,0.0425
3181.50,0.0425
3181.00,0.0425
3180.50,0.0425
3180.00,0.0425
3179.50,0.0425
3179.00,0.0425
3178.50,0.0425
3178.00,0.0425
3177.50,0.0425
3177.00,0.0425
3176.50,0.0425
3176.00,0.0425
3175.50,0.0425
3175.00,0.0425
3174.50,0.0425
3174.00,0.0425
3173.50,0.0425
3173.00,0.0425
3172.50,0.0426
3172.00,0.0426
3171.50,0.0426
3171.00,0.0426
3170.50,0.0426
3170.00,0.0426
3169.50,0.0426
3169.00,0.0426
3168.50,0.0427
3168.00,0.0427
3167.50,0.0427
3167.00,0.0427
3166.50,0.0427
3166.00,0.0428
3165.50,0.0428
3165.00,0.0428
3164.50,0.0428
3164.00,0.0429
3163.50,0.0429
3163.00,0.0429
3162.50,0.0429
3162.00,0.0429
3161.50,0.0430
3161.00,0.0430
3160.50,0.0430
3160.00,0.0430
3159.50,0.0431
3159.00,0.0431
3158.50,0.0431
3158.00,0.0431
3157.50,0.0431
3157.00,0.0432
3156.50,0.0432
3156.00,0.0432
3155.50,0.0432
3155.00,0.0432
3154.50,0.0432
3154.00,0.0432
3153.50,0.0432
3153.00,0.0432
3152.50,0.0432
3152.00,0.0432
3151.50,0.0433
3151.00,0.0434
3150.50,0.0435
3150.00,0.0436
3149.50,0.0436
3149.00,0.0437
3148.50,0.0437
3148.00,0.0437
3147.50,0.0438
3147.00,0.0438
3146.50,0.0438
3146.00,0.0439
3145.50,0.0439
3145.00,0.0440
3144.50,0.0440
3144.00,0.0440
3143.50,0.0441
3143.00,0.0441
3142.50,0.0442
3142.00,0.0442
3141.50,0.0442
3141.00,0.0442
3140.50,0.0442
3140.00,0.0442
3139.50,0.0443
3139.00,0.0443
3138.50,0.0444
3138.00,0.0445
3137.50,0.0446
3137.00,0.0447
3136.50,0.0448
3136.00,0.0449
3135.50,0.0449
3135.00,0.0450
3134.50,0.0451
3134.00,0.0451
3133.50,0.0452
3133.00,0.0452
3132.50,0.0453
3132.00,0.0453
3131.50,0.0454
3131.00,0.0454
3130.50,0.0454
3130.00,0.0455
3129.50,0.0456
3129.00,0.0457
3128.50,0.0458
3128.00,0.0458
3127.50,0.0459
3127.00,0.0460
3126.50,0.0460
3126.00,0.0461
3125.50,0.0462
3125.00,0.0462
3124.50,0.0463
3124.00,0.0463
3123.50,0.0464
3123.00,0.0464
3122.50,0.0464
3122.00,0.0464
3121.50,0.0464
3121.00,0.0464
3120.50,0.0465
3120.00,0.0465
3119.50,0.0466
3119.00,0.0466
3118.50,0.0467
3118.00,0.0467
3117.50,0.0467
3117.00,0.0468
3116.50,0.0468
3116.00,0.0468
3115.50,0.0469
3115.00,0.0470
3114.50,0.0470
3114.00,0.0471
3113.50,0.0472
3113.00,0.0473
3112.50,0.0473
3112.00,0.0473
3111.50,0.0473
3111.00,0.0474
3110.50,0.0474
3110.00,0.0473
3109.50,0.0473
3109.00,0.0473
3108.50,0.0473
3108.00,0.0474
3107.50,0.0475
3107.00,0.0475
3106.50,0.0476
3106.00,0.0476
3105.50,0.0476
3105.00,0.0476
3104.50,0.0476
3104.00,0.0476
3103.50,0.0476
3103.00,0.0477
3102.50,0.0476
3102.00,0.0476
3101.50,0.0476
3101.00,0.0475
3100.50,0.0475
3100.00,0.0475
3099.50,0.0476
3099.00,0.0476
3098.50,0.0477
3098.00,0.0477
3097.50,0.0477
3097.00,0.0477
3096.50,0.0477
3096.00,0.0477
3095.50,0.0477
3095.00,0.0477
3094.50,0.0477
3094.00,0.0477
3093.50,0.0477
3093.00,0.0477
3092.50,0.0477
3092.00,0.0477
3091.50,0.0476
3091.00,0.0476
3090.50,0.0476
3090.00,0.0476
3089.50,0.0476
3089.00,0.0477
3088.50,0.0477
3088.00,0.0477
3087.50,0.0477
3087.00,0.0477
3086.50,0.0477
3086.00,0.0477
3085.50,0.0477
3085.00,0.0477
3084.50,0.0477
3084.00,0.0477
3083.50,0.0478
3083.00,0.0478
3082.50,0.0479
3082.00,0.0479
3081.50,0.0479
3081.00,0.0479
3080.50,0.0479
3080.00,0.0480
3079.50,0.0480
3079.00,0.0480
3078.50,0.0480
3078.00,0.0481
3077.50,0.0481
3077.00,0.0482
3076.50,0.0483
3076.00,0.0484
3075.50,0.0485
3075.00,0.0486
3074.50,0.0486
3074.00,0.0487
3073.50,0.0487
3073.00,0.0488
3072.50,0.0488
3072.00,0.0489
3071.50,0.0489
3071.00,0.0490
3070.50,0.0491
3070.00,0.0491
3069.50,0.0492
3069.00,0.0492
3068.50,0.0492
3068.00,0.0492
3067.50,0.0493
3067.00,0.0494
3066.50,0.0495
3066.00,0.0496
3065.50,0.0498
3065.00,0.0499
3064.50,0.0500
3064.00,0.0501
3063.50,0.0503
3063.00,0.0504
3062.50,0.0506
3062.00,0.0508
3061.50,0.0509
3061.00,0.0511
3060.50,0.0513
3060.00,0.0514
3059.50,0.0516
3059.00,0.0518
3058.50,0.0519
3058.00,0.0521
3057.50,0.0523
3057.00,0.0524
3056.50,0.0526
3056.00,0.0528
3055.50,0.0529
3055.00,0.0530
3054.50,0.0532
3054.00,0.0533
3053.50,0.0534
3053.00,0.0534
3052.50,0.0534
3052.00,0.0533
3051.50,0.0532
3051.00,0.0531
3050.50,0.0530
3050.00,0.0529
3049.50,0.0528
3049.00,0.0526
3048.50,0.0524
3048.00,0.0522
3047.50,0.0520
3047.00,0.0517
3046.50,0.0515
3046.00,0.0513
3045.50,0.0511
3045.00,0.0510
3044.50,0.0509
3044.00,0.0507
3043.50,0.0506
3043.00,0.0505
3042.50,0.0504
3042.00,0.0504
3041.50,0.0503
3041.00,0.0503
3040.50,0.0502
3040.00,0.0502
3039.50,0.0502
3039.00,0.0503
3038.50,0.0502
3038.00,0.0502
3037.50,0.0502
3037.00,0.0502
3036.50,0.0501
3036.00,0.0500
3035.50,0.0500
3035.00,0.0500
3034.50,0.0500
3034.00,0.0500
3033.50,0.0500
3033.00,0.0500
3032.50,0.0501
3032.00,0.0501
3031.50,0.0502
3031.00,0.0502
3030.50,0.0502
3030.00,0.0502
3029.50,0.0503
3029.00,0.0504
3028.50,0.0505
3028.00,0.0505
3027.50,0.0506
3027.00,0.0507
3026.50,0.0507
3026.00,0.0507
3025.50,0.0508
3025.00,0.0508
3024.50,0.0510
3024.00,0.0511
3023.50,0.0513
3023.00,0.0514
3022.50,0.0515
3022.00,0.0517
3021.50,0.0518
3021.00,0.0519
3020.50,0.0520
3020.00,0.0521
3019.50,0.0523
3019.00,0.0525
3018.50,0.0526
3018.00,0.0527
3017.50,0.0528
3017.00,0.0530
3016.50,0.0531
3016.00,0.0532
3015.50,0.0533
3015.00,0.0534
3014.50,0.0535
3014.00,0.0536
3013.50,0.0537
3013.00,0.0538
3012.50,0.0539
3012.00,0.0541
3011.50,0.0542
3011.00,0.0543
3010.50,0.0545
3010.00,0.0547
3009.50,0.0549
3009.00,0.0550
3008.50,0.0552
3008.00,0.0554
3007.50,0.0556
3007.00,0.0558
3006.50,0.0560
3006.00,0.0562
3005.50,0.0565
3005.00,0.0567
3004.50,0.0570
3004.00,0.0572
3003.50,0.0575
3003.00,0.0579
3002.50,0.0582
3002.00,0.0586
3001.50,0.0590
3001.00,0.0593
3000.50,0.0597
3000.00,0.0602
2999.50,0.0606
2999.00,0.0611
2998.50,0.0615
2998.00,0.0620
2997.50,0.0626
2997.00,0.0632
2996.50,0.0638
2996.00,0.0645
2995.50,0.0652
2995.00,0.0659
2994.50,0.0667
2994.00,0.0675
2993.50,0.0683
2993.00,0.0691
2992.50,0.0701
2992.00,0.0711
2991.50,0.0722
2991.00,0.0733
2990.50,0.0745
2990.00,0.0758
2989.50,0.0771
2989.00,0.0786
2988.50,0.0801
2988.00,0.0817
2987.50,0.0834
2987.00,0.0852
2986.50,0.0871
2986.00,0.0891
2985.50,0.0913
2985.00,0.0936
2984.50,0.0961
2984.00,0.0988
2983.50,0.1016
2983.00,0.1046
2982.50,0.1078
2982.00,0.1113
2981.50,0.1150
2981.00,0.1190
2980.50,0.1233
2980.00,0.1279
2979.50,0.1329
2979.00,0.1382
2978.50,0.1440
2978.00,0.1502
2977.50,0.1569
2977.00,0.1640
2976.50,0.1717
2976.00,0.1799
2975.50,0.1887
2975.00,0.1981
2974.50,0.2082
2974.00,0.2190
2973.50,0.2304
2973.00,0.2426
2972.50,0.2555
2972.00,0.2690
2971.50,0.2832
2971.00,0.2981
2970.50,0.3135
2970.00,0.3294
2969.50,0.3457
2969.00,0.3623
2968.50,0.3789
2968.00,0.3955
2967.50,0.4118
2967.00,0.4274
2966.50,0.4422
2966.00,0.4559
2965.50,0.4681
2965.00,0.4784
2964.50,0.4867
2964.00,0.4927
2963.50,0.4961
2963.00,0.4967
2962.50,0.4948
2962.00,0.4902
2961.50,0.4829
2961.00,0.4732
2960.50,0.4614
2960.00,0.4478
2959.50,0.4326
2959.00,0.4162
2958.50,0.3991
2958.00,0.3816
2957.50,0.3639
2957.00,0.3463
2956.50,0.3291
2956.00,0.3125
2955.50,0.2965
2955.00,0.2812
2954.50,0.2667
2954.00,0.2531
2953.50,0.2403
2953.00,0.2284
2952.50,0.2174
2952.00,0.2073
2951.50,0.1980
2951.00,0.1893
2950.50,0.1812
2950.00,0.1738
2949.50,0.1668
2949.00,0.1603
2948.50,0.1542
2948.00,0.1485
2947.50,0.1433
2947.00,0.1384
2946.50,0.1339
2946.00,0.1297
2945.50,0.1258
2945.00,0.1221
2944.50,0.1187
2944.00,0.1155
2943.50,0.1126
2943.00,0.1099
2942.50,0.1074
2942.00,0.1050
2941.50,0.1028
2941.00,0.1008
2940.50,0.0988
2940.00,0.0970
2939.50,0.0952
2939.00,0.0936
2938.50,0.0921
2938.00,0.0907
2937.50,0.0893
2937.00,0.0880
2936.50,0.0868
2936.00,0.0857
2935.50,0.0846
2935.00,0.0836
2934.50,0.0826
2934.00,0.0818
2933.50,0.0810
2933.00,0.0802
2932.50,0.0794
2932.00,0.0787
2931.50,0.0780
2931.00,0.0774
2930.50,0.0768
2930.00,0.0762
2929.50,0.0758
2929.00,0.0754
2928.50,0.0751
2928.00,0.0748
2927.50,0.0745
2927.00,0.0742
2926.50,0.0739
2926.00,0.0737
2925.50,0.0736
2925.00,0.0734
2924.50,0.0733
2924.00,0.0733
2923.50,0.0732
2923.00,0.0733
2922.50,0.0733
2922.00,0.0734
2921.50,0.0736
2921.00,0.0738
2920.50,0.0740
2920.00,0.0743
2919.50,0.0746
2919.00,0.0749
2918.50,0.0754
2918.00,0.0759
2917.50,0.0765
2917.00,0.0771
2916.50,0.0779
2916.00,0.0787
2915.50,0.0796
2915.00,0.0806
2914.50,0.0816
2914.00,0.0828
2913.50,0.0841
2913.00,0.0855
2912.50,0.0870
2912.00,0.0885
2911.50,0.0901
2911.00,0.0918
2910.50,0.0935
2910.00,0.0952
2909.50,0.0969
2909.00,0.0986
2908.50,0.1002
2908.00,0.1017
2907.50,0.1030
2907.00,0.1042
2906.50,0.1052
2906.00,0.1060
2905.50,0.1065
2905.00,0.1067
2904.50,0.1067
2904.00,0.1065
2903.50,0.1060
2903.00,0.1052
2902.50,0.1043
2902.00,0.1031
2901.50,0.1018
2901.00,0.1004
2900.50,0.0988
2900.00,0.0972
2899.50,0.0955
2899.00,0.0937
2898.50,0.0920
2898.00,0.0902
2897.50,0.0885
2897.00,0.0868
2896.50,0.0851
2896.00,0.0835
2895.50,0.0820
2895.00,0.0805
2894.50,0.0792
2894.00,0.0779
2893.50,0.0766
2893.00,0.0754
2892.50,0.0743
2892.00,0.0732
2891.50,0.0722
2891.00,0.0712
2890.50,0.0703
2890.00,0.0695
2889.50,0.0687
2889.00,0.0679
2888.50,0.0672
2888.00,0.0665
2887.50,0.0658
2887.00,0.0652
2886.50,0.0646
2886.00,0.0640
2885.50,0.0635
2885.00,0.0630
2884.50,0.0625
2884.00,0.0621
2883.50,0.0616
2883.00,0.0612
2882.50,0.0608
2882.00,0.0604
2881.50,0.0601
2881.00,0.0597
2880.50,0.0594
2880.00,0.0591
2879.50,0.0588
2879.00,0.0585
2878.50,0.0582
2878.00,0.0579
2877.50,0.0576
2877.00,0.0573
2876.50,0.0571
2876.00,0.0568
2875.50,0.0565
2875.00,0.0562
2874.50,0.0559
2874.00,0.0557
2873.50,0.0555
2873.00,0.0553
2872.50,0.0551
2872.00,0.0549
2871.50,0.0548
2871.00,0.0546
2870.50,0.0544
2870.00,0.0542
2869.50,0.0540
2869.00,0.0539
2868.50,0.0537
2868.00,0.0535
2867.50,0.0534
2867.00,0.0532
2866.50,0.0531
2866.00,0.0530
2865.50,0.0528
2865.00,0.0527
2864.50,0.0526
2864.00,0.0525
2863.50,0.0524
2863.00,0.0523
2862.50,0.0522
2862.00,0.0521
2861.50,0.0520
2861.00,0.0518
2860.50,0.0518
2860.00,0.0517
2859.50,0.0516
2859.00,0.0516
2858.50,0.0516
2858.00,0.0516
2857.50,0.0515
2857.00,0.0515
2856.50,0.0515
2856.00,0.0514
2855.50,0.0514
2855.00,0.0514
2854.50,0.0513
2854.00,0.0513
2853.50,0.0513
2853.00,0.0512
2852.50,0.0512
2852.00,0.0512
2851.50,0.0511
2851.00,0.0511
2850.50,0.0511
2850.00,0.0510
2849.50,0.0510
2849.00,0.0509
2848.50,0.0508
2848.00,0.0508
2847.50,0.0507
2847.00,0.0507
2846.50,0.0506
2846.00,0.0506
2845.50,0.0506
2845.00,0.0505
2844.50,0.0505
2844.00,0.0504
2843.50,0.0504
2843.00,0.0503
2842.50,0.0502
2842.00,0.0502
2841.50,0.0501
2841.00,0.0501
2840.50,0.0500
2840.00,0.0499
2839.50,0.0498
2839.00,0.0498
2838.50,0.0497
2838.00,0.0497
2837.50,0.0497
2837.00,0.0497
2836.50,0.0496
2836.00,0.0496
2835.50,0.0495
2835.00,0.0494
2834.50,0.0494
2834.00,0.0493
2833.50,0.0493
2833.00,0.0492
2832.50,0.0491
2832.00,0.0491
2831.50,0.0490
2831.00,0.0490
2830.50,0.0489
2830.00,0.0489
2829.50,0.0488
2829.00,0.0488
2828.50,0.0488
2828.00,0.0488
2827.50,0.0487
2827.00,0.0487
2826.50,0.0487
2826.00,0.0486
2825.50,0.0486
2825.00,0.0486
2824.50,0.0486
2824.00,0.0486
2823.50,0.0486
2823.00,0.0486
2822.50,0.0486
2822.00,0.0486
2821.50,0.0486
2821.00,0.0487
2820.50,0.0487
2820.00,0.0487
2819.50,0.0487
2819.00,0.0488
2818.50,0.0488
2818.00,0.0488
2817.50,0.0489
2817.00,0.0489
2816.50,0.0489
2816.00,0.0489
2815.50,0.0490
2815.00,0.0490
2814.50,0.0490
2814.00,0.0490
2813.50,0.0490
2813.00,0.0490
2812.50,0.0490
2812.00,0.0490
2811.50,0.0490
2811.00,0.0490
2810.50,0.0490
2810.00,0.0490
2809.50,0.0490
2809.00,0.0490
2808.50,0.0490
2808.00,0.0490
2807.50,0.0490
2807.00,0.0489
2806.50,0.0489
2806.00,0.0489
2805.50,0.0489
2805.00,0.0489
2804.50,0.0488
2804.00,0.0488
2803.50,0.0488
2803.00,0.0488
2802.50,0.0487
2802.00,0.0487
2801.50,0.0487
2801.00,0.0487
2800.50,0.0486
2800.00,0.0486
2799.50,0.0485
2799.00,0.0485
2798.50,0.0484
2798.00,0.0484
2797.50,0.0484
2797.00,0.0484
2796.50,0.0483
2796.00,0.0483
2795.50,0.0482
2795.00,0.0482
2794.50,0.0481
2794.00,0.0480
2793.50,0.0480
2793.00,0.0479
2792.50,0.0477
2792.00,0.0476
2791.50,0.0475
2791.00,0.0474
2790.50,0.0472
2790.00,0.0471
2789.50,0.0469
2789.00,0.0467
2788.50,0.0466
2788.00,0.0464
2787.50,0.0463
2787.00,0.0461
2786.50,0.0459
2786.00,0.0457
2785.50,0.0455
2785.00,0.0454
2784.50,0.0452
2784.00,0.0450
2783.50,0.0448
2783.00,0.0446
2782.50,0.0444
2782.00,0.0442
2781.50,0.0441
2781.00,0.0439
2780.50,0.0437
2780.00,0.0436
2779.50,0.0434
2779.00,0.0433
2778.50,0.0431
2778.00,0.0430
2777.50,0.0428
2777.00,0.0427
2776.50,0.0425
2776.00,0.0424
2775.50,0.0422
2775.00,0.0421
2774.50,0.0420
2774.00,0.0419
2773.50,0.0418
2773.00,0.0418
2772.50,0.0417
2772.00,0.0416
2771.50,0.0415
2771.00,0.0414
2770.50,0.0414
2770.00,0.0413
2769.50,0.0412
2769.00,0.0411
2768.50,0.0410
2768.00,0.0409
2767.50,0.0409
2767.00,0.0408
2766.50,0.0408
2766.00,0.0407
2765.50,0.0406
2765.00,0.0406
2764.50,0.0405
2764.00,0.0405
2763.50,0.0404
2763.00,0.0404
2762.50,0.0403
2762.00,0.0403
2761.50,0.0403
2761.00,0.0402
2760.50,0.0402
2760.00,0.0401
2759.50,0.0401
2759.00,0.0400
2758.50,0.0400
2758.00,0.0400
2757.50,0.0399
2757.00,0.0399
2756.50,0.0398
2756.00,0.0398
2755.50,0.0398
2755.00,0.0398
2754.50,0.0397
2754.00,0.0397
2753.50,0.0397
2753.00,0.0397
2752.50,0.0396
2752.00,0.0396
2751.50,0.0395
2751.00,0.0395
2750.50,0.0395
2750.00,0.0394
2749.50,0.0394
2749.00,0.0394
2748.50,0.0393
2748.00,0.0393
2747.50,0.0392
2747.00,0.0393
2746.50,0.0393
2746.00,0.0393
2745.50,0.0393
2745.00,0.0392
2744.50,0.0392
2744.00,0.0392
2743.50,0.0392
2743.00,0.0391
2742.50,0.0391
2742.00,0.0391
2741.50,0.0391
2741.00,0.0390
2740.50,0.0390
2740.00,0.0390
2739.50,0.0390
2739.00,0.0390
2738.50,0.0389
2738.00,0.0389
2737.50,0.0389
2737.00,0.0388
2736.50,0.0388
2736.00,0.0388
2735.50,0.0388
2735.00,0.0388
2734.50,0.0388
2734.00,0.0388
2733.50,0.0388
2733.00,0.0388
2732.50,0.0388
2732.00,0.0388
2731.50,0.0388
2731.00,0.0388
2730.50,0.0388
2730.00,0.0388
2729.50,0.0388
2729.00,0.0387
2728.50,0.0387
2728.00,0.0387
2727.50,0.0386
2727.00,0.0386
2726.50,0.0386
2726.00,0.0386
2725.50,0.0386
2725.00,0.0386
2724.50,0.0386
2724.00,0.0386
2723.50,0.0386
2723.00,0.0386
2722.50,0.0386
2722.00,0.0386
2721.50,0.0386
2721.00,0.0386
2720.50,0.0386
2720.00,0.0386
2719.50,0.0386
2719.00,0.0386
2718.50,0.0386
2718.00,0.0386
2717.50,0.0386
2717.00,0.0386
2716.50,0.0386
2716.00,0.0386
2715.50,0.0386
2715.00,0.0386
2714.50,0.0386
2714.00,0.0386
2713.50,0.0386
2713.00,0.0386
2712.50,0.0386
2712.00,0.0386
2711.50,0.0386
2711.00,0.0386
2710.50,0.0386
2710.00,0.0386
2709.50,0.0386
2709.00,0.0386
2708.50,0.0386
2708.00,0.0386
2707.50,0.0386
2707.00,0.0386
2706.50,0.0386
2706.00,0.0386
2705.50,0.0386
2705.00,0.0386
2704.50,0.0386
2704.00,0.0385
2703.50,0.0385
2703.00,0.0385
2702.50,0.0385
2702.00,0.0385
2701.50,0.0385
2701.00,0.0385
2700.50,0.0385
2700.00,0.0385
2699.50,0.0385
2699.00,0.0385
2698.50,0.0385
2698.00,0.0385
2697.50,0.0385
2697.00,0.0385
2696.50,0.0385
2696.00,0.0384
2695.50,0.0384
2695.00,0.0384
2694.50,0.0384
2694.00,0.0384
2693.50,0.0384
2693.00,0.0384
2692.50,0.0384
2692.00,0.0384
2691.50,0.0384
2691.00,0.0384
2690.50,0.0384
2690.00,0.0384
2689.50,0.0384
2689.00,0.0384
2688.50,0.0384
2688.00,0.0384
2687.50,0.0384
2687.00,0.0384
2686.50,0.0384
2686.00,0.0384
2685.50,0.0384
2685.00,0.0384
2684.50,0.0384
2684.00,0.0384
2683.50,0.0385
2683.00,0.0385
2682.50,0.0385
2682.00,0.0385
2681.50,0.0385
2681.00,0.0385
2680.50,0.0385
2680.00,0.0385
2679.50,0.0386
2679.00,0.0386
2678.50,0.0386
2678.00,0.0386
2677.50,0.0387
2677.00,0.0387
2676.50,0.0388
2676.00,0.0388
2675.50,0.0389
2675.00,0.0389
2674.50,0.0389
2674.00,0.0389
2673.50,0.0390
2673.00,0.0390
2672.50,0.0391
2672.00,0.0391
2671.50,0.0392
2671.00,0.0392
2670.50,0.0393
2670.00,0.0393
2669.50,0.0393
2669.00,0.0394
2668.50,0.0394
2668.00,0.0394
2667.50,0.0395
2667.00,0.0395
2666.50,0.0395
2666.00,0.0395
2665.50,0.0396
2665.00,0.0396
2664.50,0.0396
2664.00,0.0396
2663.50,0.0396
2663.00,0.0396
2662.50,0.0396
2662.00,0.0396
2661.50,0.0396
2661.00,0.0396
2660.50,0.0396
2660.00,0.0395
2659.50,0.0395
2659.00,0.0395
2658.50,0.0395
2658.00,0.0395
2657.50,0.0394
2657.00,0.0394
2656.50,0.0394
2656.00,0.0393
2655.50,0.0393
2655.00,0.0392
2654.50,0.0392
2654.00,0.0391
2653.50,0.0391
2653.00,0.0390
2652.50,0.0390
2652.00,0.0389
2651.50,0.0389
2651.00,0.0389
2650.50,0.0388
2650.00,0.0388
2649.50,0.0387
2649.00,0.0387
2648.50,0.0386
2648.00,0.0386
2647.50,0.0385
2647.00,0.0385
2646.50,0.0384
2646.00,0.0384
2645.50,0.0383
2645.00,0.0383
2644.50,0.0382
2644.00,0.0382
2643.50,0.0382
2643.00,0.0381
2642.50,0.0381
2642.00,0.0381
2641.50,0.0380
2641.00,0.0380
2640.50,0.0380
2640.00,0.0379
2639.50,0.0379
2639.00,0.0378
2638.50,0.0378
2638.00,0.0378
2637.50,0.0377
2637.00,0.0377
2636.50,0.0377
2636.00,0.0377
2635.50,0.0376
2635.00,0.0376
2634.50,0.0376
2634.00,0.0376
2633.50,0.0376
2633.00,0.0375
2632.50,0.0375
2632.00,0.0375
2631.50,0.0375
2631.00,0.0375
2630.50,0.0374
2630.00,0.0374
2629.50,0.0374
2629.00,0.0374
2628.50,0.0374
2628.00,0.0373
2627.50,0.0373
2627.00,0.0373
2626.50,0.0373
2626.00,0.0373
2625.50,0.0372
2625.00,0.0372
2624.50,0.0372
2624.00,0.0372
2623.50,0.0372
2623.00,0.0372
2622.50,0.0372
2622.00,0.0372
2621.50,0.0372
2621.00,0.0372
2620.50,0.0371
2620.00,0.0371
2619.50,0.0371
2619.00,0.0371
2618.50,0.0371
2618.00,0.0371
2617.50,0.0371
2617.00,0.0371
2616.50,0.0371
2616.00,0.0371
2615.50,0.0371
2615.00,0.0371
2614.50,0.0371
2614.00,0.0371
2613.50,0.0371
2613.00,0.0371
2612.50,0.0371
2612.00,0.0370
2611.50,0.0370
2611.00,0.0370
2610.50,0.0370
2610.00,0.0370
2609.50,0.0370
2609.00,0.0370
2608.50,0.0370
2608.00,0.0370
2607.50,0.0370
2607.00,0.0370
2606.50,0.0370
2606.00,0.0370
2605.50,0.0369
2605.00,0.0369
2604.50,0.0369
2604.00,0.0369
2603.50,0.0369
2603.00,0.0369
2602.50,0.0369
2602.00,0.0369
2601.50,0.0369
2601.00,0.0369
2600.50,0.0369
2600.00,0.0369
2599.50,0.0368
2599.00,0.0368
2598.50,0.0368
2598.00,0.0368
2597.50,0.0368
2597.00,0.0368
2596.50,0.0368
2596.00,0.0368
2595.50,0.0368
2595.00,0.0368
2594.50,0.0368
2594.00,0.0368
2593.50,0.0368
2593.00,0.0368
2592.50,0.0368
2592.00,0.0368
2591.50,0.0368
2591.00,0.0368
2590.50,0.0368
2590.00,0.0368
2589.50,0.0368
2589.00,0.0368
2588.50,0.0368
2588.00,0.0367
2587.50,0.0367
2587.00,0.0367
2586.50,0.0367
2586.00,0.0367
2585.50,0.0367
2585.00,0.0367
2584.50,0.0368
2584.00,0.0367
2583.50,0.0367
2583.00,0.0367
2582.50,0.0367
2582.00,0.0367
2581.50,0.0367
2581.00,0.0367
2580.50,0.0367
2580.00,0.0367
2579.50,0.0367
2579.00,0.0367
2578.50,0.0367
2578.00,0.0367
2577.50,0.0367
2577.00,0.0367
2576.50,0.0367
2576.00,0.0366
2575.50,0.0366
2575.00,0.0366
2574.50,0.0366
2574.00,0.0366
2573.50,0.0366
2573.00,0.0366
2572.50,0.0366
2572.00,0.0366
2571.50,0.0366
2571.00,0.0366
2570.50,0.0366
2570.00,0.0366
2569.50,0.0366
2569.00,0.0366
2568.50,0.0366
2568.00,0.0366
2567.50,0.0366
2567.00,0.0365
2566.50,0.0365
2566.00,0.0365
2565.50,0.0365
2565.00,0.0365
2564.50,0.0365
2564.00,0.0365
2563.50,0.0365
2563.00,0.0365
2562.50,0.0365
2562.00,0.0365
2561.50,0.0365
2561.00,0.0365
2560.50,0.0365
2560.00,0.0366
2559.50,0.0366
2559.00,0.0365
2558.50,0.0365
2558.00,0.0365
2557.50,0.0365
2557.00,0.0365
2556.50,0.0365
2556.00,0.0365
2555.50,0.0365
2555.00,0.0365
2554.50,0.0365
2554.00,0.0365
2553.50,0.0365
2553.00,0.0365
2552.50,0.0365
2552.00,0.0365
2551.50,0.0365
2551.00,0.0365
2550.50,0.0365
2550.00,0.0365
2549.50,0.0365
2549.00,0.0365
2548.50,0.0364
2548.00,0.0364
2547.50,0.0364
2547.00,0.0364
2546.50,0.0364
2546.00,0.0364
2545.50,0.0364
2545.00,0.0364
2544.50,0.0364
2544.00,0.0364
2543.50,0.0364
2543.00,0.0364
2542.50,0.0364
2542.00,0.0363
2541.50,0.0363
2541.00,0.0363
2540.50,0.0363
2540.00,0.0363
2539.50,0.0363
2539.00,0.0363
2538.50,0.0363
2538.00,0.0362
2537.50,0.0362
2537.00,0.0362
2536.50,0.0362
2536.00,0.0362
2535.50,0.0362
2535.00,0.0362
2534.50,0.0362
2534.00,0.0362
2533.50,0.0362
2533.00,0.0362
2532.50,0.0362
2532.00,0.0362
2531.50,0.0362
2531.00,0.0362
2530.50,0.0362
2530.00,0.0362
2529.50,0.0362
2529.00,0.0362
2528.50,0.0362
2528.00,0.0362
2527.50,0.0362
2527.00,0.0362
2526.50,0.0362
2526.00,0.0362
2525.50,0.0362
2525.00,0.0362
2524.50,0.0363
2524.00,0.0363
2523.50,0.0363
2523.00,0.0363
2522.50,0.0363
2522.00,0.0363
2521.50,0.0363
2521.00,0.0363
2520.50,0.0363
2520.00,0.0363
2519.50,0.0363
2519.00,0.0363
2518.50,0.0364
2518.00,0.0364
2517.50,0.0364
2517.00,0.0364
2516.50,0.0364
2516.00,0.0364
2515.50,0.0365
2515.00,0.0365
2514.50,0.0365
2514.00,0.0365
2513.50,0.0366
2513.00,0.0366
2512.50,0.0366
2512.00,0.0367
2511.50,0.0367
2511.00,0.0367
2510.50,0.0368
2510.00,0.0368
2509.50,0.0369
2509.00,0.0370
2508.50,0.0370
2508.00,0.0371
2507.50,0.0372
2507.00,0.0373
2506.50,0.0374
2506.00,0.0375
2505.50,0.0376
2505.00,0.0377
2504.50,0.0379
2504.00,0.0380
2503.50,0.0381
2503.00,0.0383
2502.50,0.0384
2502.00,0.0385
2501.50,0.0386
2501.00,0.0387
2500.50,0.0387
2500.00,0.0388
2499.50,0.0388
2499.00,0.0389
2498.50,0.0389
2498.00,0.0388
2497.50,0.0388
2497.00,0.0387
2496.50,0.0387
2496.00,0.0386
2495.50,0.0385
2495.00,0.0385
2494.50,0.0384
2494.00,0.0383
2493.50,0.0382
2493.00,0.0381
2492.50,0.0381
2492.00,0.0380
2491.50,0.0379
2491.00,0.0378
2490.50,0.0377
2490.00,0.0377
2489.50,0.0376
2489.00,0.0375
2488.50,0.0375
2488.00,0.0374
2487.50,0.0373
2487.00,0.0373
2486.50,0.0372
2486.00,0.0372
2485.50,0.0371
2485.00,0.0371
2484.50,0.0370
2484.00,0.0370
2483.50,0.0370
2483.00,0.0369
2482.50,0.0369
2482.00,0.0368
2481.50,0.0368
2481.00,0.0368
2480.50,0.0368
2480.00,0.0368
2479.50,0.0367
2479.00,0.0367
2478.50,0.0367
2478.00,0.0367
2477.50,0.0367
2477.00,0.0366
2476.50,0.0366
2476.00,0.0366
2475.50,0.0366
2475.00,0.0366
2474.50,0.0366
2474.00,0.0365
2473.50,0.0365
2473.00,0.0365
2472.50,0.0365
2472.00,0.0365
2471.50,0.0365
2471.00,0.0365
2470.50,0.0365
2470.00,0.0365
2469.50,0.0365
2469.00,0.0365
2468.50,0.0365
2468.00,0.0364
2467.50,0.0364
2467.00,0.0364
2466.50,0.0364
2466.00,0.0364
2465.50,0.0364
2465.00,0.0364
2464.50,0.0364
2464.00,0.0364
2463.50,0.0364
2463.00,0.0364
2462.50,0.0363
2462.00,0.0363
2461.50,0.0363
2461.00,0.0363
2460.50,0.0363
2460.00,0.0363
2459.50,0.0363
2459.00,0.0363
2458.50,0.0363
2458.00,0.0363
2457.50,0.0363
2457.00,0.0363
2456.50,0.0363
2456.00,0.0363
2455.50,0.0362
2455.00,0.0362
2454.50,0.0362
2454.00,0.0362
2453.50,0.0362
2453.00,0.0362
2452.50,0.0362
2452.00,0.0362
2451.50,0.0362
2451.00,0.0362
2450.50,0.0362
2450.00,0.0362
2449.50,0.0362
2449.00,0.0362
2448.50,0.0362
2448.00,0.0362
2447.50,0.0362
2447.00,0.0362
2446.50,0.0362
2446.00,0.0362
2445.50,0.0362
2445.00,0.0362
2444.50,0.0362
2444.00,0.0362
2443.50,0.0362
2443.00,0.0362
2442.50,0.0362
2442.00,0.0362
2441.50,0.0362
2441.00,0.0362
2440.50,0.0362
2440.00,0.0362
2439.50,0.0362
2439.00,0.0361
2438.50,0.0361
2438.00,0.0361
2437.50,0.0361
2437.00,0.0361
2436.50,0.0361
2436.00,0.0361
2435.50,0.0361
2435.00,0.0361
2434.50,0.0361
2434.00,0.0361
2433.50,0.0361
2433.00,0.0361
2432.50,0.0361
2432.00,0.0361
2431.50,0.0361
2431.00,0.0361
2430.50,0.0361
2430.00,0.0361
2429.50,0.0360
2429.00,0.0360
2428.50,0.0360
2428.00,0.0360
2427.50,0.0360
2427.00,0.0360
2426.50,0.0360
2426.00,0.0360
2425.50,0.0360
2425.00,0.0360
2424.50,0.0360
2424.00,0.0360
2423.50,0.0360
2423.00,0.0360
2422.50,0.0360
2422.00,0.0360
2421.50,0.0360
2421.00,0.0360
2420.50,0.0360
2420.00,0.0360
2419.50,0.0360
2419.00,0.0360
2418.50,0.0360
2418.00,0.0360
2417.50,0.0360
2417.00,0.0360
2416.50,0.0360
2416.00,0.0360
2415.50,0.0360
2415.00,0.0360
2414.50,0.0360
2414.00,0.0360
2413.50,0.0360
2413.00,0.0360
2412.50,0.0360
2412.00,0.0360
2411.50,0.0360
2411.00,0.0360
2410.50,0.0360
2410.00,0.0360
2409.50,0.0360
2409.00,0.0360
2408.50,0.0360
2408.00,0.0360
2407.50,0.0360
2407.00,0.0360
2406.50,0.0360
2406.00,0.0360
2405.50,0.0360
2405.00,0.0360
2404.50,0.0360
2404.00,0.0360
2403.50,0.0360
2403.00,0.0360
2402.50,0.0360
2402.00,0.0359
2401.50,0.0359
2401.00,0.0359
2400.50,0.0359
2400.00,0.0359
2399.50,0.0359
2399.00,0.0359
2398.50,0.0359
2398.00,0.0359
2397.50,0.0359
2397.00,0.0359
2396.50,0.0359
2396.00,0.0359
2395.50,0.0359
2395.00,0.0359
2394.50,0.0359
2394.00,0.0359
2393.50,0.0359
2393.00,0.0359
2392.50,0.0359
2392.00,0.0359
2391.50,0.0359
2391.00,0.0359
2390.50,0.0359
2390.00,0.0359
2389.50,0.0359
2389.00,0.0359
2388.50,0.0359
2388.00,0.0360
2387.50,0.0360
2387.00,0.0360
2386.50,0.0360
2386.00,0.0360
2385.50,0.0360
2385.00,0.0360
2384.50,0.0360
2384.00,0.0360
2383.50,0.0361
2383.00,0.0361
2382.50,0.0361
2382.00,0.0361
2381.50,0.0361
2381.00,0.0361
2380.50,0.0361
2380.00,0.0361
2379.50,0.0361
2379.00,0.0361
2378.50,0.0361
2378.00,0.0360
2377.50,0.0360
2377.00,0.0360
2376.50,0.0360
2376.00,0.0360
2375.50,0.0360
2375.00,0.0360
2374.50,0.0360
2374.00,0.0360
2373.50,0.0360
2373.00,0.0360
2372.50,0.0360
2372.00,0.0360
2371.50,0.0361
2371.00,0.0361
2370.50,0.0360
2370.00,0.0360
2369.50,0.0360
2369.00,0.0360
2368.50,0.0360
2368.00,0.0361
2367.50,0.0361
2367.00,0.0361
2366.50,0.0360
2366.00,0.0360
2365.50,0.0360
2365.00,0.0360
2364.50,0.0360
2364.00,0.0360
2363.50,0.0360
2363.00,0.0360
2362.50,0.0359
2362.00,0.0359
2361.50,0.0359
2361.00,0.0359
2360.50,0.0359
2360.00,0.0359
2359.50,0.0358
2359.00,0.0358
2358.50,0.0358
2358.00,0.0358
2357.50,0.0358
2357.00,0.0358
2356.50,0.0358
2356.00,0.0358
2355.50,0.0358
2355.00,0.0357
2354.50,0.0357
2354.00,0.0357
2353.50,0.0357
2353.00,0.0357
2352.50,0.0357
2352.00,0.0357
2351.50,0.0356
2351.00,0.0356
2350.50,0.0357
2350.00,0.0358
2349.50,0.0360
2349.00,0.0361
2348.50,0.0363
2348.00,0.0364
2347.50,0.0364
2347.00,0.0364
2346.50,0.0363
2346.00,0.0363
2345.50,0.0362
2345.00,0.0361
2344.50,0.0361
2344.00,0.0360
2343.50,0.0360
2343.00,0.0360
2342.50,0.0359
2342.00,0.0360
2341.50,0.0360
2341.00,0.0359
2340.50,0.0359
2340.00,0.0359
2339.50,0.0359
2339.00,0.0358
2338.50,0.0358
2338.00,0.0359
2337.50,0.0359
2337.00,0.0359
2336.50,0.0359
2336.00,0.0359
2335.50,0.0359
2335.00,0.0358
2334.50,0.0359
2334.00,0.0359
2333.50,0.0359
2333.00,0.0359
2332.50,0.0359
2332.00,0.0359
2331.50,0.0359
2331.00,0.0358
2330.50,0.0358
2330.00,0.0359
2329.50,0.0358
2329.00,0.0357
2328.50,0.0358
2328.00,0.0359
2327.50,0.0358
2327.00,0.0358
2326.50,0.0359
2326.00,0.0359
2325.50,0.0359
2325.00,0.0359
2324.50,0.0359
2324.00,0.0359
2323.50,0.0359
2323.00,0.0359
2322.50,0.0359
2322.00,0.0359
2321.50,0.0358
2321.00,0.0358
2320.50,0.0358
2320.00,0.0358
2319.50,0.0358
2319.00,0.0358
2318.50,0.0358
2318.00,0.0358
2317.50,0.0358
2317.00,0.0358
2316.50,0.0358
2316.00,0.0358
2315.50,0.0358
2315.00,0.0358
2314.50,0.0358
2314.00,0.0358
2313.50,0.0359
2313.00,0.0359
2312.50,0.0358
2312.00,0.0358
2311.50,0.0359
2311.00,0.0359
2310.50,0.0359
2310.00,0.0359
2309.50,0.0359
2309.00,0.0360
2308.50,0.0359
2308.00,0.0359
2307.50,0.0360
2307.00,0.0360
2306.50,0.0360
2306.00,0.0360
2305.50,0.0360
2305.00,0.0360
2304.50,0.0360
2304.00,0.0360
2303.50,0.0360
2303.00,0.0361
2302.50,0.0361
2302.00,0.0361
2301.50,0.0361
2301.00,0.0361
2300.50,0.0361
2300.00,0.0361
2299.50,0.0361
2299.00,0.0361
2298.50,0.0362
2298.00,0.0362
2297.50,0.0362
2297.00,0.0362
2296.50,0.0362
2296.00,0.0362
2295.50,0.0362
2295.00,0.0362
2294.50,0.0362
2294.00,0.0362
2293.50,0.0362
2293.00,0.0362
2292.50,0.0362
2292.00,0.0362
2291.50,0.0362
2291.00,0.0362
2290.50,0.0362
2290.00,0.0362
2289.50,0.0362
2289.00,0.0362
2288.50,0.0362
2288.00,0.0362
2287.50,0.0362
2287.00,0.0363
2286.50,0.0363
2286.00,0.0363
2285.50,0.0363
2285.00,0.0363
2284.50,0.0363
2284.00,0.0363
2283.50,0.0363
2283.00,0.0363
2282.50,0.0363
2282.00,0.0363
2281.50,0.0363
2281.00,0.0363
2280.50,0.0363
2280.00,0.0364
2279.50,0.0364
2279.00,0.0364
2278.50,0.0364
2278.00,0.0364
2277.50,0.0364
2277.00,0.0364
2276.50,0.0364
2276.00,0.0364
2275.50,0.0364
2275.00,0.0364
2274.50,0.0364
2274.00,0.0364
2273.50,0.0364
2273.00,0.0365
2272.50,0.0365
2272.00,0.0365
2271.50,0.0365
2271.00,0.0365
2270.50,0.0365
2270.00,0.0365
2269.50,0.0365
2269.00,0.0365
2268.50,0.0365
2268.00,0.0365
2267.50,0.0365
2267.00,0.0365
2266.50,0.0365
2266.00,0.0365
2265.50,0.0365
2265.00,0.0365
2264.50,0.0365
2264.00,0.0365
2263.50,0.0365
2263.00,0.0365
2262.50,0.0365
2262.00,0.0365
2261.50,0.0365
2261.00,0.0365
2260.50,0.0365
2260.00,0.0365
2259.50,0.0365
2259.00,0.0365
2258.50,0.0365
2258.00,0.0365
2257.50,0.0365
2257.00,0.0365
2256.50,0.0365
2256.00,0.0365
2255.50,0.0365
2255.00,0.0365
2254.50,0.0365
2254.00,0.0365
2253.50,0.0365
2253.00,0.0365
2252.50,0.0365
2252.00,0.0365
2251.50,0.0365
2251.00,0.0365
2250.50,0.0365
2250.00,0.0365
2249.50,0.0365
2249.00,0.0365
2248.50,0.0365
2248.00,0.0366
2247.50,0.0366
2247.00,0.0366
2246.50,0.0366
2246.00,0.0366
2245.50,0.0366
2245.00,0.0366
2244.50,0.0367
2244.00,0.0367
2243.50,0.0367
2243.00,0.0367
2242.50,0.0367
2242.00,0.0367
2241.50,0.0367
2241.00,0.0367
2240.50,0.0368
2240.00,0.0368
2239.50,0.0368
2239.00,0.0368
2238.50,0.0368
2238.00,0.0368
2237.50,0.0368
2237.00,0.0369
2236.50,0.0369
2236.00,0.0369
2235.50,0.0369
2235.00,0.0369
2234.50,0.0369
2234.00,0.0369
2233.50,0.0370
2233.00,0.0370
2232.50,0.0370
2232.00,0.0370
2231.50,0.0370
2231.00,0.0371
2230.50,0.0371
2230.00,0.0371
2229.50,0.0371
2229.00,0.0371
2228.50,0.0371
2228.00,0.0372
2227.50,0.0372
2227.00,0.0372
2226.50,0.0373
2226.00,0.0373
2225.50,0.0373
2225.00,0.0373
2224.50,0.0374
2224.00,0.0374
2223.50,0.0374
2223.00,0.0374
2222.50,0.0375
2222.00,0.0375
2221.50,0.0376
2221.00,0.0376
2220.50,0.0376
2220.00,0.0377
2219.50,0.0377
2219.00,0.0378
2218.50,0.0378
2218.00,0.0378
2217.50,0.0379
2217.00,0.0379
2216.50,0.0380
2216.00,0.0380
2215.50,0.0381
2215.00,0.0381
2214.50,0.0382
2214.00,0.0382
2213.50,0.0383
2213.00,0.0383
2212.50,0.0384
2212.00,0.0384
2211.50,0.0385
2211.00,0.0386
2210.50,0.0386
2210.00,0.0387
2209.50,0.0388
2209.00,0.0388
2208.50,0.0389
2208.00,0.0390
2207.50,0.0390
2207.00,0.0391
2206.50,0.0392
2206.00,0.0393
2205.50,0.0394
2205.00,0.0395
2204.50,0.0395
2204.00,0.0396
2203.50,0.0397
2203.00,0.0398
2202.50,0.0399
2202.00,0.0400
2201.50,0.0401
2201.00,0.0403
2200.50,0.0404
2200.00,0.0405
2199.50,0.0406
2199.00,0.0407
2198.50,0.0409
2198.00,0.0410
2197.50,0.0412
2197.00,0.0413
2196.50,0.0415
2196.00,0.0416
2195.50,0.0418
2195.00,0.0420
2194.50,0.0422
2194.00,0.0424
2193.50,0.0426
2193.00,0.0428
2192.50,0.0430
2192.00,0.0432
2191.50,0.0434
2191.00,0.0436
2190.50,0.0439
2190.00,0.0441
2189.50,0.0444
2189.00,0.0447
2188.50,0.0449
2188.00,0.0452
2187.50,0.0455
2187.00,0.0458
2186.50,0.0461
2186.00,0.0464
2185.50,0.0468
2185.00,0.0471
2184.50,0.0474
2184.00,0.0478
2183.50,0.0482
2183.00,0.0485
2182.50,0.0489
2182.00,0.0493
2181.50,0.0497
2181.00,0.0501
2180.50,0.0505
2180.00,0.0509
2179.50,0.0514
2179.00,0.0518
2178.50,0.0522
2178.00,0.0527
2177.50,0.0531
2177.00,0.0535
2176.50,0.0540
2176.00,0.0544
2175.50,0.0548
2175.00,0.0553
2174.50,0.0557
2174.00,0.0561
2173.50,0.0565
2173.00,0.0569
2172.50,0.0573
2172.00,0.0577
2171.50,0.0581
2171.00,0.0585
2170.50,0.0588
2170.00,0.0592
2169.50,0.0595
2169.00,0.0598
2168.50,0.0601
2168.00,0.0603
2167.50,0.0606
2167.00,0.0608
2166.50,0.0610
2166.00,0.0612
2165.50,0.0614
2165.00,0.0615
2164.50,0.0616
2164.00,0.0617
2163.50,0.0618
2163.00,0.0619
2162.50,0.0619
2162.00,0.0619
2161.50,0.0618
2161.00,0.0618
2160.50,0.0617
2160.00,0.0616
2159.50,0.0614
2159.00,0.0613
2158.50,0.0611
2158.00,0.0609
2157.50,0.0607
2157.00,0.0604
2156.50,0.0602
2156.00,0.0599
2155.50,0.0596
2155.00,0.0593
2154.50,0.0589
2154.00,0.0586
2153.50,0.0582
2153.00,0.0579
2152.50,0.0575
2152.00,0.0571
2151.50,0.0567
2151.00,0.0563
2150.50,0.0558
2150.00,0.0554
2149.50,0.0550
2149.00,0.0546
2148.50,0.0541
2148.00,0.0537
2147.50,0.0532
2147.00,0.0528
2146.50,0.0524
2146.00,0.0520
2145.50,0.0515
2145.00,0.0511
2144.50,0.0507
2144.00,0.0503
2143.50,0.0499
2143.00,0.0495
2142.50,0.0491
2142.00,0.0487
2141.50,0.0484
2141.00,0.0480
2140.50,0.0477
2140.00,0.0473
2139.50,0.0470
2139.00,0.0467
2138.50,0.0464
2138.00,0.0460
2137.50,0.0457
2137.00,0.0455
2136.50,0.0452
2136.00,0.0449
2135.50,0.0446
2135.00,0.0444
2134.50,0.0441
2134.00,0.0439
2133.50,0.0437
2133.00,0.0435
2132.50,0.0433
2132.00,0.0431
2131.50,0.0429
2131.00,0.0427
2130.50,0.0425
2130.00,0.0423
2129.50,0.0422
2129.00,0.0420
2128.50,0.0419
2128.00,0.0417
2127.50,0.0416
2127.00,0.0415
2126.50,0.0414
2126.00,0.0412
2125.50,0.0411
2125.00,0.0410
2124.50,0.0409
2124.00,0.0408
2123.50,0.0407
2123.00,0.0406
2122.50,0.0405
2122.00,0.0404
2121.50,0.0403
2121.00,0.0403
2120.50,0.0402
2120.00,0.0401
2119.50,0.0400
2119.00,0.0400
2118.50,0.0399
2118.00,0.0398
2117.50,0.0398
2117.00,0.0397
2116.50,0.0397
2116.00,0.0396
2115.50,0.0396
2115.00,0.0395
2114.50,0.0395
2114.00,0.0394
2113.50,0.0394
2113.00,0.0393
2112.50,0.0393
2112.00,0.0393
2111.50,0.0392
2111.00,0.0392
2110.50,0.0391
2110.00,0.0391
2109.50,0.0391
2109.00,0.0391
2108.50,0.0390
2108.00,0.0390
2107.50,0.0390
2107.00,0.0390
2106.50,0.0389
2106.00,0.0389
2105.50,0.0389
2105.00,0.0389
2104.50,0.0389
2104.00,0.0389
2103.50,0.0388
2103.00,0.0388
2102.50,0.0388
2102.00,0.0388
2101.50,0.0387
2101.00,0.0387
2100.50,0.0387
2100.00,0.0387
2099.50,0.0387
2099.00,0.0387
2098.50,0.0387
2098.00,0.0386
2097.50,0.0386
2097.00,0.0386
2096.50,0.0386
2096.00,0.0386
2095.50,0.0385
2095.00,0.0385
2094.50,0.0385
2094.00,0.0385
2093.50,0.0385
2093.00,0.0385
2092.50,0.0385
2092.00,0.0385
2091.50,0.0385
2091.00,0.0384
2090.50,0.0384
2090.00,0.0384
2089.50,0.0384
2089.00,0.0384
2088.50,0.0384
2088.00,0.0384
2087.50,0.0384
2087.00,0.0384
2086.50,0.0384
2086.00,0.0384
2085.50,0.0384
2085.00,0.0384
2084.50,0.0384
2084.00,0.0384
2083.50,0.0384
2083.00,0.0384
2082.50,0.0384
2082.00,0.0384
2081.50,0.0384
2081.00,0.0384
2080.50,0.0384
2080.00,0.0384
2079.50,0.0384
2079.00,0.0384
2078.50,0.0385
2078.00,0.0385
2077.50,0.0385
2077.00,0.0385
2076.50,0.0385
2076.00,0.0385
2075.50,0.0385
2075.00,0.0385
2074.50,0.0385
2074.00,0.0386
2073.50,0.0386
2073.00,0.0386
2072.50,0.0386
2072.00,0.0386
2071.50,0.0386
2071.00,0.0387
2070.50,0.0387
2070.00,0.0387
2069.50,0.0387
2069.00,0.0387
2068.50,0.0388
2068.00,0.0388
2067.50,0.0388
2067.00,0.0388
2066.50,0.0389
2066.00,0.0389
2065.50,0.0389
2065.00,0.0389
2064.50,0.0389
2064.00,0.0390
2063.50,0.0390
2063.00,0.0390
2062.50,0.0390
2062.00,0.0391
2061.50,0.0391
2061.00,0.0391
2060.50,0.0392
2060.00,0.0392
2059.50,0.0392
2059.00,0.0392
2058.50,0.0393
2058.00,0.0393
2057.50,0.0393
2057.00,0.0393
2056.50,0.0394
2056.00,0.0394
2055.50,0.0394
2055.00,0.0394
2054.50,0.0394
2054.00,0.0394
2053.50,0.0395
2053.00,0.0395
2052.50,0.0395
2052.00,0.0395
2051.50,0.0395
2051.00,0.0395
2050.50,0.0395
2050.00,0.0394
2049.50,0.0394
2049.00,0.0394
2048.50,0.0394
2048.00,0.0393
2047.50,0.0393
2047.00,0.0392
2046.50,0.0392
2046.00,0.0391
2045.50,0.0390
2045.00,0.0389
2044.50,0.0389
2044.00,0.0388
2043.50,0.0387
2043.00,0.0386
2042.50,0.0385
2042.00,0.0384
2041.50,0.0383
2041.00,0.0383
2040.50,0.0382
2040.00,0.0381
2039.50,0.0380
2039.00,0.0380
2038.50,0.0379
2038.00,0.0378
2037.50,0.0378
2037.00,0.0377
2036.50,0.0377
2036.00,0.0376
2035.50,0.0376
2035.00,0.0375
2034.50,0.0375
2034.00,0.0375
2033.50,0.0375
2033.00,0.0374
2032.50,0.0374
2032.00,0.0374
2031.50,0.0374
2031.00,0.0373
2030.50,0.0373
2030.00,0.0373
2029.50,0.0373
2029.00,0.0373
2028.50,0.0373
2028.00,0.0373
2027.50,0.0373
2027.00,0.0373
2026.50,0.0373
2026.00,0.0373
2025.50,0.0374
2025.00,0.0374
2024.50,0.0374
2024.00,0.0374
2023.50,0.0374
2023.00,0.0375
2022.50,0.0375
2022.00,0.0375
2021.50,0.0376
2021.00,0.0376
2020.50,0.0376
2020.00,0.0377
2019.50,0.0377
2019.00,0.0377
2018.50,0.0378
2018.00,0.0378
2017.50,0.0378
2017.00,0.0379
2016.50,0.0379
2016.00,0.0380
2015.50,0.0380
2015.00,0.0381
2014.50,0.0381
2014.00,0.0382
2013.50,0.0382
2013.00,0.0382
2012.50,0.0383
2012.00,0.0383
2011.50,0.0384
2011.00,0.0385
2010.50,0.0385
2010.00,0.0385
2009.50,0.0386
2009.00,0.0386
2008.50,0.0387
2008.00,0.0387
2007.50,0.0387
2007.00,0.0388
2006.50,0.0388
2006.00,0.0388
2005.50,0.0388
2005.00,0.0389
2004.50,0.0389
2004.00,0.0389
2003.50,0.0389
2003.00,0.0389
2002.50,0.0390
2002.00,0.0390
2001.50,0.0390
2001.00,0.0390
2000.50,0.0391
2000.00,0.0391
1999.50,0.0391
1999.00,0.0391
1998.50,0.0391
1998.00,0.0391
1997.50,0.0391
1997.00,0.0391
1996.50,0.0391
1996.00,0.0391
1995.50,0.0391
1995.00,0.0391
1994.50,0.0391
1994.00,0.0391
1993.50,0.0391
1993.00,0.0391
1992.50,0.0391
1992.00,0.0391
1991.50,0.0391
1991.00,0.0391
1990.50,0.0391
1990.00,0.0391
1989.50,0.0391
1989.00,0.0392
1988.50,0.0392
1988.00,0.0392
1987.50,0.0392
1987.00,0.0393
1986.50,0.0393
1986.00,0.0393
1985.50,0.0394
1985.00,0.0394
1984.50,0.0395
1984.00,0.0395
1983.50,0.0396
1983.00,0.0396
1982.50,0.0397
1982.00,0.0397
1981.50,0.0398
1981.00,0.0399
1980.50,0.0399
1980.00,0.0400
1979.50,0.0401
1979.00,0.0402
1978.50,0.0402
1978.00,0.0403
1977.50,0.0404
1977.00,0.0405
1976.50,0.0406
1976.00,0.0406
1975.50,0.0407
1975.00,0.0408
1974.50,0.0409
1974.00,0.0410
1973.50,0.0411
1973.00,0.0413
1972.50,0.0414
1972.00,0.0415
1971.50,0.0416
1971.00,0.0417
1970.50,0.0418
1970.00,0.0419
1969.50,0.0420
1969.00,0.0421
1968.50,0.0422
1968.00,0.0424
1967.50,0.0425
1967.00,0.0426
1966.50,0.0427
1966.00,0.0428
1965.50,0.0429
1965.00,0.0430
1964.50,0.0431
1964.00,0.0432
1963.50,0.0433
1963.00,0.0434
1962.50,0.0435
1962.00,0.0436
1961.50,0.0437
1961.00,0.0437
1960.50,0.0438
1960.00,0.0439
1959.50,0.0440
1959.00,0.0441
1958.50,0.0442
1958.00,0.0443
1957.50,0.0444
1957.00,0.0445
1956.50,0.0446
1956.00,0.0447
1955.50,0.0448
1955.00,0.0449
1954.50,0.0450
1954.00,0.0451
1953.50,0.0452
1953.00,0.0453
1952.50,0.0454
1952.00,0.0455
1951.50,0.0457
1951.00,0.0458
1950.50,0.0459
1950.00,0.0460
1949.50,0.0462
1949.00,0.0463
1948.50,0.0464
1948.00,0.0465
1947.50,0.0466
1947.00,0.0466
1946.50,0.0467
1946.00,0.0468
1945.50,0.0468
1945.00,0.0469
1944.50,0.0469
1944.00,0.0469
1943.50,0.0469
1943.00,0.0468
1942.50,0.0468
1942.00,0.0467
1941.50,0.0466
1941.00,0.0465
1940.50,0.0464
1940.00,0.0463
1939.50,0.0461
1939.00,0.0459
1938.50,0.0458
1938.00,0.0456
1937.50,0.0454
1937.00,0.0452
1936.50,0.0450
1936.00,0.0448
1935.50,0.0447
1935.00,0.0445
1934.50,0.0443
1934.00,0.0442
1933.50,0.0440
1933.00,0.0439
1932.50,0.0437
1932.00,0.0436
1931.50,0.0435
1931.00,0.0434
1930.50,0.0433
1930.00,0.0432
1929.50,0.0431
1929.00,0.0430
1928.50,0.0429
1928.00,0.0428
1927.50,0.0428
1927.00,0.0427
1926.50,0.0427
1926.00,0.0426
1925.50,0.0426
1925.00,0.0425
1924.50,0.0425
1924.00,0.0424
1923.50,0.0424
1923.00,0.0423
1922.50,0.0423
1922.00,0.0422
1921.50,0.0422
1921.00,0.0422
1920.50,0.0422
1920.00,0.0421
1919.50,0.0421
1919.00,0.0420
1918.50,0.0420
1918.00,0.0419
1917.50,0.0418
1917.00,0.0418
1916.50,0.0417
1916.00,0.0416
1915.50,0.0416
1915.00,0.0415
1914.50,0.0414
1914.00,0.0413
1913.50,0.0413
1913.00,0.0412
1912.50,0.0412
1912.00,0.0411
1911.50,0.0410
1911.00,0.0409
1910.50,0.0408
1910.00,0.0407
1909.50,0.0407
1909.00,0.0406
1908.50,0.0406
1908.00,0.0405
1907.50,0.0404
1907.00,0.0404
1906.50,0.0404
1906.00,0.0403
1905.50,0.0403
1905.00,0.0402
1904.50,0.0402
1904.00,0.0402
1903.50,0.0401
1903.00,0.0401
1902.50,0.0401
1902.00,0.0400
1901.50,0.0400
1901.00,0.0400
1900.50,0.0399
1900.00,0.0399
1899.50,0.0399
1899.00,0.0399
1898.50,0.0399
1898.00,0.0399
1897.50,0.0399
1897.00,0.0399
1896.50,0.0399
1896.00,0.0398
1895.50,0.0398
1895.00,0.0398
1894.50,0.0398
1894.00,0.0398
1893.50,0.0398
1893.00,0.0398
1892.50,0.0398
1892.00,0.0398
1891.50,0.0398
1891.00,0.0398
1890.50,0.0398
1890.00,0.0398
1889.50,0.0398
1889.00,0.0398
1888.50,0.0398
1888.00,0.0398
1887.50,0.0398
1887.00,0.0398
1886.50,0.0398
1886.00,0.0398
1885.50,0.0398
1885.00,0.0398
1884.50,0.0398
1884.00,0.0398
1883.50,0.0398
1883.00,0.0398
1882.50,0.0398
1882.00,0.0398
1881.50,0.0398
1881.00,0.0399
1880.50,0.0399
1880.00,0.0399
1879.50,0.0399
1879.00,0.0399
1878.50,0.0399
1878.00,0.0399
1877.50,0.0399
1877.00,0.0399
1876.50,0.0399
1876.00,0.0399
1875.50,0.0399
1875.00,0.0399
1874.50,0.0399
1874.00,0.0399
1873.50,0.0399
1873.00,0.0400
1872.50,0.0400
1872.00,0.0400
1871.50,0.0400
1871.00,0.0400
1870.50,0.0400
1870.00,0.0399
1869.50,0.0399
1869.00,0.0399
1868.50,0.0399
1868.00,0.0399
1867.50,0.0399
1867.00,0.0399
1866.50,0.0399
1866.00,0.0399
1865.50,0.0400
1865.00,0.0400
1864.50,0.0400
1864.00,0.0400
1863.50,0.0400
1863.00,0.0400
1862.50,0.0400
1862.00,0.0400
1861.50,0.0400
1861.00,0.0400
1860.50,0.0399
1860.00,0.0399
1859.50,0.0399
1859.00,0.0399
1858.50,0.0399
1858.00,0.0399
1857.50,0.0399
1857.00,0.0399
1856.50,0.0399
1856.00,0.0399
1855.50,0.0400
1855.00,0.0400
1854.50,0.0399
1854.00,0.0399
1853.50,0.0399
1853.00,0.0399
1852.50,0.0399
1852.00,0.0399
1851.50,0.0400
1851.00,0.0400
1850.50,0.0400
1850.00,0.0399
1849.50,0.0399
1849.00,0.0399
1848.50,0.0399
1848.00,0.0399
1847.50,0.0399
1847.00,0.0398
1846.50,0.0398
1846.00,0.0398
1845.50,0.0398
1845.00,0.0398
1844.50,0.0398
1844.00,0.0399
1843.50,0.0399
1843.00,0.0399
1842.50,0.0398
1842.00,0.0398
1841.50,0.0398
1841.00,0.0398
1840.50,0.0398
1840.00,0.0398
1839.50,0.0398
1839.00,0.0398
1838.50,0.0398
1838.00,0.0398
1837.50,0.0398
1837.00,0.0398
1836.50,0.0398
1836.00,0.0398
1835.50,0.0398
1835.00,0.0398
1834.50,0.0399
1834.00,0.0399
1833.50,0.0399
1833.00,0.0399
1832.50,0.0399
1832.00,0.0399
1831.50,0.0399
1831.00,0.0398
1830.50,0.0398
1830.00,0.0398
1829.50,0.0398
1829.00,0.0398
1828.50,0.0399
1828.00,0.0399
1827.50,0.0400
1827.00,0.0400
1826.50,0.0400
1826.00,0.0400
1825.50,0.0400
1825.00,0.0400
1824.50,0.0400
1824.00,0.0401
1823.50,0.0401
1823.00,0.0401
1822.50,0.0401
1822.00,0.0402
1821.50,0.0402
1821.00,0.0402
1820.50,0.0403
1820.00,0.0403
1819.50,0.0403
1819.00,0.0404
1818.50,0.0404
1818.00,0.0404
1817.50,0.0405
1817.00,0.0405
1816.50,0.0405
1816.00,0.0406
1815.50,0.0406
1815.00,0.0407
1814.50,0.0407
1814.00,0.0408
1813.50,0.0408
1813.00,0.0408
1812.50,0.0409
1812.00,0.0409
1811.50,0.0409
1811.00,0.0409
1810.50,0.0410
1810.00,0.0410
1809.50,0.0411
1809.00,0.0411
1808.50,0.0412
1808.00,0.0412
1807.50,0.0413
1807.00,0.0413
1806.50,0.0414
1806.00,0.0414
1805.50,0.0415
1805.00,0.0415
1804.50,0.0415
1804.00,0.0416
1803.50,0.0416
1803.00,0.0417
1802.50,0.0417
1802.00,0.0418
1801.50,0.0418
1801.00,0.0418
1800.50,0.0419
1800.00,0.0419
1799.50,0.0419
1799.00,0.0420
1798.50,0.0420
1798.00,0.0421
1797.50,0.0422
1797.00,0.0422
1796.50,0.0422
1796.00,0.0423
1795.50,0.0423
1795.00,0.0424
1794.50,0.0424
1794.00,0.0424
1793.50,0.0425
1793.00,0.0425
1792.50,0.0426
1792.00,0.0426
1791.50,0.0427
1791.00,0.0427
1790.50,0.0427
1790.00,0.0428
1789.50,0.0428
1789.00,0.0429
1788.50,0.0429
1788.00,0.0429
1787.50,0.0430
1787.00,0.0430
1786.50,0.0431
1786.00,0.0431
1785.50,0.0431
1785.00,0.0431
1784.50,0.0432
1784.00,0.0432
1783.50,0.0432
1783.00,0.0432
1782.50,0.0433
1782.00,0.0433
1781.50,0.0433
1781.00,0.0433
1780.50,0.0433
1780.00,0.0433
1779.50,0.0433
1779.00,0.0433
1778.50,0.0433
1778.00,0.0434
1777.50,0.0433
1777.00,0.0434
1776.50,0.0434
1776.00,0.0433
1775.50,0.0433
1775.00,0.0433
1774.50,0.0434
1774.00,0.0433
1773.50,0.0433
1773.00,0.0433
1772.50,0.0433
1772.00,0.0433
1771.50,0.0432
1771.00,0.0432
1770.50,0.0432
1770.00,0.0433
1769.50,0.0432
1769.00,0.0432
1768.50,0.0433
1768.00,0.0433
1767.50,0.0433
1767.00,0.0433
1766.50,0.0433
1766.00,0.0432
1765.50,0.0432
1765.00,0.0432
1764.50,0.0432
1764.00,0.0432
1763.50,0.0432
1763.00,0.0432
1762.50,0.0431
1762.00,0.0431
1761.50,0.0431
1761.00,0.0431
1760.50,0.0432
1760.00,0.0431
1759.50,0.0431
1759.00,0.0431
1758.50,0.0432
1758.00,0.0431
1757.50,0.0431
1757.00,0.0431
1756.50,0.0432
1756.00,0.0431
1755.50,0.0431
1755.00,0.0431
1754.50,0.0432
1754.00,0.0432
1753.50,0.0432
1753.00,0.0432
1752.50,0.0433
1752.00,0.0433
1751.50,0.0433
1751.00,0.0433
1750.50,0.0433
1750.00,0.0433
1749.50,0.0432
1749.00,0.0432
1748.50,0.0432
1748.00,0.0432
1747.50,0.0433
1747.00,0.0434
1746.50,0.0434
1746.00,0.0435
1745.50,0.0435
1745.00,0.0436
1744.50,0.0436
1744.00,0.0437
1743.50,0.0437
1743.00,0.0437
1742.50,0.0437
1742.00,0.0438
1741.50,0.0438
1741.00,0.0438
1740.50,0.0438
1740.00,0.0438
1739.50,0.0438
1739.00,0.0438
1738.50,0.0439
1738.00,0.0439
1737.50,0.0439
1737.00,0.0439
1736.50,0.0440
1736.00,0.0440
1735.50,0.0440
1735.00,0.0441
1734.50,0.0443
1734.00,0.0443
1733.50,0.0442
1733.00,0.0442
1732.50,0.0442
1732.00,0.0442
1731.50,0.0442
1731.00,0.0442
1730.50,0.0443
1730.00,0.0442
1729.50,0.0442
1729.00,0.0443
1728.50,0.0443
1728.00,0.0443
1727.50,0.0443
1727.00,0.0443
1726.50,0.0443
1726.00,0.0443
1725.50,0.0444
1725.00,0.0444
1724.50,0.0443
1724.00,0.0443
1723.50,0.0443
1723.00,0.0443
1722.50,0.0443
1722.00,0.0443
1721.50,0.0443
1721.00,0.0443
1720.50,0.0443
1720.00,0.0443
1719.50,0.0443
1719.00,0.0443
1718.50,0.0443
1718.00,0.0442
1717.50,0.0442
1717.00,0.0443
1716.50,0.0443
1716.00,0.0442
1715.50,0.0442
1715.00,0.0442
1714.50,0.0441
1714.00,0.0441
1713.50,0.0441
1713.00,0.0441
1712.50,0.0441
1712.00,0.0441
1711.50,0.0441
1711.00,0.0441
1710.50,0.0441
1710.00,0.0441
1709.50,0.0440
1709.00,0.0440
1708.50,0.0440
1708.00,0.0440
1707.50,0.0440
1707.00,0.0440
1706.50,0.0440
1706.00,0.0439
1705.50,0.0439
1705.00,0.0439
1704.50,0.0439
1704.00,0.0440
1703.50,0.0440
1703.00,0.0441
1702.50,0.0441
1702.00,0.0441
1701.50,0.0441
1701.00,0.0442
1700.50,0.0443
1700.00,0.0441
1699.50,0.0440
1699.00,0.0441
1698.50,0.0441
1698.00,0.0440
1697.50,0.0440
1697.00,0.0440
1696.50,0.0441
1696.00,0.0442
1695.50,0.0442
1695.00,0.0442
1694.50,0.0442
1694.00,0.0442
1693.50,0.0441
1693.00,0.0442
1692.50,0.0442
1692.00,0.0443
1691.50,0.0443
1691.00,0.0443
1690.50,0.0443
1690.00,0.0443
1689.50,0.0443
1689.00,0.0444
1688.50,0.0444
1688.00,0.0444
1687.50,0.0444
1687.00,0.0444
1686.50,0.0444
1686.00,0.0444
1685.50,0.0444
1685.00,0.0445
1684.50,0.0445
1684.00,0.0444
1683.50,0.0443
1683.00,0.0444
1682.50,0.0445
1682.00,0.0446
1681.50,0.0446
1681.00,0.0447
1680.50,0.0447
1680.00,0.0448
1679.50,0.0448
1679.00,0.0448
1678.50,0.0449
1678.00,0.0449
1677.50,0.0449
1677.00,0.0450
1676.50,0.0450
1676.00,0.0450
1675.50,0.0451
1675.00,0.0451
1674.50,0.0451
1674.00,0.0452
1673.50,0.0452
1673.00,0.0452
1672.50,0.0453
1672.00,0.0453
1671.50,0.0453
1671.00,0.0454
1670.50,0.0454
1670.00,0.0455
1669.50,0.0455
1669.00,0.0456
1668.50,0.0456
1668.00,0.0456
1667.50,0.0457
1667.00,0.0457
1666.50,0.0458
1666.00,0.0459
1665.50,0.0459
1665.00,0.0460
1664.50,0.0460
1664.00,0.0460
1663.50,0.0460
1663.00,0.0461
1662.50,0.0461
1662.00,0.0462
1661.50,0.0463
1661.00,0.0463
1660.50,0.0464
1660.00,0.0464
1659.50,0.0465
1659.00,0.0466
1658.50,0.0466
1658.00,0.0466
1657.50,0.0466
1657.00,0.0467
1656.50,0.0467
1656.00,0.0467
1655.50,0.0468
1655.00,0.0469
1654.50,0.0469
1654.00,0.0469
1653.50,0.0470
1653.00,0.0469
1652.50,0.0468
1652.00,0.0469
1651.50,0.0471
1651.00,0.0472
1650.50,0.0472
1650.00,0.0472
1649.50,0.0473
1649.00,0.0473
1648.50,0.0473
1648.00,0.0474
1647.50,0.0474
1647.00,0.0474
1646.50,0.0475
1646.00,0.0475
1645.50,0.0476
1645.00,0.0477
1644.50,0.0477
1644.00,0.0477
1643.50,0.0478
1643.00,0.0478
1642.50,0.0479
1642.00,0.0479
1641.50,0.0479
1641.00,0.0480
1640.50,0.0480
1640.00,0.0481
1639.50,0.0481
1639.00,0.0481
1638.50,0.0482
1638.00,0.0482
1637.50,0.0482
1637.00,0.0482
1636.50,0.0483
1636.00,0.0483
1635.50,0.0483
1635.00,0.0483
1634.50,0.0484
1634.00,0.0485
1633.50,0.0485
1633.00,0.0486
1632.50,0.0486
1632.00,0.0487
1631.50,0.0487
1631.00,0.0487
1630.50,0.0488
1630.00,0.0488
1629.50,0.0489
1629.00,0.0489
1628.50,0.0489
1628.00,0.0489
1627.50,0.0490
1627.00,0.0490
1626.50,0.0491
1626.00,0.0492
1625.50,0.0492
1625.00,0.0493
1624.50,0.0493
1624.00,0.0494
1623.50,0.0494
1623.00,0.0494
1622.50,0.0495
1622.00,0.0495
1621.50,0.0496
1621.00,0.0497
1620.50,0.0497
1620.00,0.0498
1619.50,0.0499
1619.00,0.0499
1618.50,0.0500
1618.00,0.0500
1617.50,0.0501
1617.00,0.0502
1616.50,0.0502
1616.00,0.0503
1615.50,0.0503
1615.00,0.0503
1614.50,0.0504
1614.00,0.0504
1613.50,0.0505
1613.00,0.0506
1612.50,0.0506
1612.00,0.0507
1611.50,0.0508
1611.00,0.0508
1610.50,0.0509
1610.00,0.0509
1609.50,0.0509
1609.00,0.0510
1608.50,0.0510
1608.00,0.0511
1607.50,0.0511
1607.00,0.0512
1606.50,0.0513
1606.00,0.0513
1605.50,0.0514
1605.00,0.0515
1604.50,0.0515
1604.00,0.0516
1603.50,0.0517
1603.00,0.0518
1602.50,0.0519
1602.00,0.0520
1601.50,0.0522
1601.00,0.0524
1600.50,0.0527
1600.00,0.0530
1599.50,0.0533
1599.00,0.0537
1598.50,0.0542
1598.00,0.0545
1597.50,0.0549
1597.00,0.0550
1596.50,0.0550
1596.00,0.0548
1595.50,0.0544
1595.00,0.0540
1594.50,0.0535
1594.00,0.0530
1593.50,0.0526
1593.00,0.0523
1592.50,0.0521
1592.00,0.0518
1591.50,0.0517
1591.00,0.0515
1590.50,0.0514
1590.00,0.0513
1589.50,0.0511
1589.00,0.0510
1588.50,0.0509
1588.00,0.0508
1587.50,0.0508
1587.00,0.0507
1586.50,0.0506
1586.00,0.0506
1585.50,0.0505
1585.00,0.0504
1584.50,0.0503
1584.00,0.0503
1583.50,0.0502
1583.00,0.0502
1582.50,0.0501
1582.00,0.0500
1581.50,0.0500
1581.00,0.0499
1580.50,0.0499
1580.00,0.0498
1579.50,0.0497
1579.00,0.0497
1578.50,0.0497
1578.00,0.0496
1577.50,0.0495
1577.00,0.0495
1576.50,0.0494
1576.00,0.0493
1575.50,0.0493
1575.00,0.0492
1574.50,0.0491
1574.00,0.0490
1573.50,0.0490
1573.00,0.0489
1572.50,0.0489
1572.00,0.0489
1571.50,0.0489
1571.00,0.0488
1570.50,0.0488
1570.00,0.0487
1569.50,0.0486
1569.00,0.0485
1568.50,0.0484
1568.00,0.0484
1567.50,0.0484
1567.00,0.0484
1566.50,0.0484
1566.00,0.0483
1565.50,0.0483
1565.00,0.0482
1564.50,0.0482
1564.00,0.0482
1563.50,0.0482
1563.00,0.0482
1562.50,0.0481
1562.00,0.0481
1561.50,0.0481
1561.00,0.0481
1560.50,0.0483
1560.00,0.0484
1559.50,0.0483
1559.00,0.0482
1558.50,0.0480
1558.00,0.0479
1557.50,0.0479
1557.00,0.0480
1556.50,0.0481
1556.00,0.0480
1555.50,0.0480
1555.00,0.0480
1554.50,0.0481
1554.00,0.0481
1553.50,0.0481
1553.00,0.0481
1552.50,0.0480
1552.00,0.0480
1551.50,0.0480
1551.00,0.0480
1550.50,0.0481
1550.00,0.0481
1549.50,0.0480
1549.00,0.0480
1548.50,0.0480
1548.00,0.0480
1547.50,0.0481
1547.00,0.0481
1546.50,0.0481
1546.00,0.0482
1545.50,0.0482
1545.00,0.0481
1544.50,0.0481
1544.00,0.0481
1543.50,0.0481
1543.00,0.0481
1542.50,0.0481
1542.00,0.0482
1541.50,0.0482
1541.00,0.0482
1540.50,0.0482
1540.00,0.0482
1539.50,0.0481
1539.00,0.0481
1538.50,0.0481
1538.00,0.0482
1537.50,0.0482
1537.00,0.0482
1536.50,0.0482
1536.00,0.0483
1535.50,0.0483
1535.00,0.0483
1534.50,0.0483
1534.00,0.0483
1533.50,0.0482
1533.00,0.0482
1532.50,0.0482
1532.00,0.0482
1531.50,0.0483
1531.00,0.0483
1530.50,0.0483
1530.00,0.0484
1529.50,0.0484
1529.00,0.0484
1528.50,0.0484
1528.00,0.0484
1527.50,0.0484
1527.00,0.0484
1526.50,0.0484
1526.00,0.0484
1525.50,0.0484
1525.00,0.0484
1524.50,0.0484
1524.00,0.0484
1523.50,0.0484
1523.00,0.0484
1522.50,0.0484
1522.00,0.0484
1521.50,0.0485
1521.00,0.0484
1520.50,0.0484
1520.00,0.0484
1519.50,0.0484
1519.00,0.0484
1518.50,0.0484
1518.00,0.0484
1517.50,0.0484
1517.00,0.0483
1516.50,0.0483
1516.00,0.0483
1515.50,0.0483
1515.00,0.0483
1514.50,0.0483
1514.00,0.0484
1513.50,0.0484
1513.00,0.0484
1512.50,0.0484
1512.00,0.0484
1511.50,0.0484
1511.00,0.0484
1510.50,0.0484
1510.00,0.0484
1509.50,0.0484
1509.00,0.0484
1508.50,0.0485
1508.00,0.0485
1507.50,0.0486
1507.00,0.0486
1506.50,0.0484
1506.00,0.0483
1505.50,0.0483
1505.00,0.0484
1504.50,0.0484
1504.00,0.0484
1503.50,0.0484
1503.00,0.0484
1502.50,0.0485
1502.00,0.0485
1501.50,0.0485
1501.00,0.0485
1500.50,0.0485
1500.00,0.0485
1499.50,0.0486
1499.00,0.0486
1498.50,0.0486
1498.00,0.0486
1497.50,0.0486
1497.00,0.0487
1496.50,0.0488
1496.00,0.0489
1495.50,0.0489
1495.00,0.0490
1494.50,0.0490
1494.00,0.0491
1493.50,0.0492
1493.00,0.0493
1492.50,0.0495
1492.00,0.0496
1491.50,0.0497
1491.00,0.0498
1490.50,0.0499
1490.00,0.0500
1489.50,0.0502
1489.00,0.0504
1488.50,0.0505
1488.00,0.0506
1487.50,0.0507
1487.00,0.0509
1486.50,0.0510
1486.00,0.0511
1485.50,0.0512
1485.00,0.0513
1484.50,0.0514
1484.00,0.0515
1483.50,0.0516
1483.00,0.0517
1482.50,0.0517
1482.00,0.0518
1481.50,0.0518
1481.00,0.0518
1480.50,0.0519
1480.00,0.0519
1479.50,0.0519
1479.00,0.0520
1478.50,0.0520
1478.00,0.0521
1477.50,0.0521
1477.00,0.0522
1476.50,0.0522
1476.00,0.0522
1475.50,0.0523
1475.00,0.0523
1474.50,0.0524
1474.00,0.0525
1473.50,0.0527
1473.00,0.0528
1472.50,0.0529
1472.00,0.0530
1471.50,0.0532
1471.00,0.0534
1470.50,0.0536
1470.00,0.0538
1469.50,0.0540
1469.00,0.0543
1468.50,0.0546
1468.00,0.0549
1467.50,0.0552
1467.00,0.0555
1466.50,0.0557
1466.00,0.0560
1465.50,0.0563
1465.00,0.0568
1464.50,0.0572
1464.00,0.0576
1463.50,0.0580
1463.00,0.0584
1462.50,0.0588
1462.00,0.0593
1461.50,0.0598
1461.00,0.0602
1460.50,0.0607
1460.00,0.0612
1459.50,0.0617
1459.00,0.0622
1458.50,0.0627
1458.00,0.0632
1457.50,0.0638
1457.00,0.0645
1456.50,0.0651
1456.00,0.0655
1455.50,0.0659
1455.00,0.0664
1454.50,0.0668
1454.00,0.0673
1453.50,0.0679
1453.00,0.0686
1452.50,0.0692
1452.00,0.0699
1451.50,0.0706
1451.00,0.0713
1450.50,0.0720
1450.00,0.0727
1449.50,0.0733
1449.00,0.0740
1448.50,0.0747
1448.00,0.0753
1447.50,0.0758
1447.00,0.0762
1446.50,0.0765
1446.00,0.0767
1445.50,0.0768
1445.00,0.0768
1444.50,0.0767
1444.00,0.0765
1443.50,0.0763
1443.00,0.0759
1442.50,0.0755
1442.00,0.0750
1441.50,0.0744
1441.00,0.0739
1440.50,0.0733
1440.00,0.0727
1439.50,0.0722
1439.00,0.0717
1438.50,0.0713
1438.00,0.0710
1437.50,0.0706
1437.00,0.0702
1436.50,0.0696
1436.00,0.0691
1435.50,0.0689
1435.00,0.0688
1434.50,0.0687
1434.00,0.0686
1433.50,0.0686
1433.00,0.0687
1432.50,0.0688
1432.00,0.0689
1431.50,0.0691
1431.00,0.0694
1430.50,0.0697
1430.00,0.0701
1429.50,0.0706
1429.00,0.0713
1428.50,0.0719
1428.00,0.0725
1427.50,0.0733
1427.00,0.0742
1426.50,0.0751
1426.00,0.0762
1425.50,0.0773
1425.00,0.0786
1424.50,0.0800
1424.00,0.0817
1423.50,0.0835
1423.00,0.0854
1422.50,0.0872
1422.00,0.0891
1421.50,0.0912
1421.00,0.0931
1420.50,0.0950
1420.00,0.0974
1419.50,0.1006
1419.00,0.1039
1418.50,0.1063
1418.00,0.1083
1417.50,0.1102
1417.00,0.1122
1416.50,0.1142
1416.00,0.1160
1415.50,0.1176
1415.00,0.1190
1414.50,0.1202
1414.00,0.1213
1413.50,0.1221
1413.00,0.1227
1412.50,0.1231
1412.00,0.1233
1411.50,0.1234
1411.00,0.1232
1410.50,0.1230
1410.00,0.1226
1409.50,0.1221
1409.00,0.1215
1408.50,0.1207
1408.00,0.1199
1407.50,0.1190
1407.00,0.1180
1406.50,0.1171
1406.00,0.1161
1405.50,0.1151
1405.00,0.1139
1404.50,0.1128
1404.00,0.1120
1403.50,0.1113
1403.00,0.1106
1402.50,0.1099
1402.00,0.1092
1401.50,0.1085
1401.00,0.1078
1400.50,0.1071
1400.00,0.1061
1399.50,0.1049
1399.00,0.1034
1398.50,0.1018
1398.00,0.1003
1397.50,0.0987
1397.00,0.0971
1396.50,0.0954
1396.00,0.0937
1395.50,0.0918
1395.00,0.0897
1394.50,0.0875
1394.00,0.0855
1393.50,0.0839
1393.00,0.0825
1392.50,0.0812
1392.00,0.0799
1391.50,0.0787
1391.00,0.0775
1390.50,0.0764
1390.00,0.0754
1389.50,0.0746
1389.00,0.0738
1388.50,0.0731
1388.00,0.0724
1387.50,0.0716
1387.00,0.0710
1386.50,0.0704
1386.00,0.0700
1385.50,0.0696
1385.00,0.0691
1384.50,0.0688
1384.00,0.0684
1383.50,0.0681
1383.00,0.0677
1382.50,0.0673
1382.00,0.0670
1381.50,0.0667
1381.00,0.0663
1380.50,0.0661
1380.00,0.0658
1379.50,0.0656
1379.00,0.0653
1378.50,0.0651
1378.00,0.0650
1377.50,0.0648
1377.00,0.0647
1376.50,0.0646
1376.00,0.0645
1375.50,0.0645
1375.00,0.0644
1374.50,0.0643
1374.00,0.0642
1373.50,0.0642
1373.00,0.0642
1372.50,0.0641
1372.00,0.0641
1371.50,0.0640
1371.00,0.0639
1370.50,0.0637
1370.00,0.0636
1369.50,0.0634
1369.00,0.0632
1368.50,0.0630
1368.00,0.0629
1367.50,0.0628
1367.00,0.0627
1366.50,0.0626
1366.00,0.0625
1365.50,0.0624
1365.00,0.0624
1364.50,0.0623
1364.00,0.0623
1363.50,0.0622
1363.00,0.0621
1362.50,0.0621
1362.00,0.0620
1361.50,0.0620
1361.00,0.0620
1360.50,0.0620
1360.00,0.0620
1359.50,0.0620
1359.00,0.0619
1358.50,0.0619
1358.00,0.0619
1357.50,0.0619
1357.00,0.0619
1356.50,0.0619
1356.00,0.0619
1355.50,0.0619
1355.00,0.0619
1354.50,0.0619
1354.00,0.0620
1353.50,0.0620
1353.00,0.0620
1352.50,0.0620
1352.00,0.0621
1351.50,0.0621
1351.00,0.0621
1350.50,0.0622
1350.00,0.0622
1349.50,0.0623
1349.00,0.0623
1348.50,0.0624
1348.00,0.0625
1347.50,0.0625
1347.00,0.0626
1346.50,0.0626
1346.00,0.0627
1345.50,0.0628
1345.00,0.0628
1344.50,0.0629
1344.00,0.0629
1343.50,0.0629
1343.00,0.0630
1342.50,0.0630
1342.00,0.0630
1341.50,0.0631
1341.00,0.0631
1340.50,0.0631
1340.00,0.0631
1339.50,0.0631
1339.00,0.0631
1338.50,0.0632
1338.00,0.0633
1337.50,0.0633
1337.00,0.0634
1336.50,0.0635
1336.00,0.0636
1335.50,0.0637
1335.00,0.0638
1334.50,0.0639
1334.00,0.0641
1333.50,0.0642
1333.00,0.0643
1332.50,0.0645
1332.00,0.0647
1331.50,0.0648
1331.00,0.0650
1330.50,0.0652
1330.00,0.0654
1329.50,0.0656
1329.00,0.0658
1328.50,0.0660
1328.00,0.0662
1327.50,0.0664
1327.00,0.0666
1326.50,0.0668
1326.00,0.0671
1325.50,0.0673
1325.00,0.0675
1324.50,0.0678
1324.00,0.0681
1323.50,0.0683
1323.00,0.0686
1322.50,0.0689
1322.00,0.0692
1321.50,0.0695
1321.00,0.0698
1320.50,0.0701
1320.00,0.0704
1319.50,0.0707
1319.00,0.0710
1318.50,0.0713
1318.00,0.0717
1317.50,0.0720
1317.00,0.0723
1316.50,0.0727
1316.00,0.0730
1315.50,0.0734
1315.00,0.0738
1314.50,0.0742
1314.00,0.0745
1313.50,0.0749
1313.00,0.0753
1312.50,0.0758
1312.00,0.0762
1311.50,0.0766
1311.00,0.0770
1310.50,0.0774
1310.00,0.0778
1309.50,0.0782
1309.00,0.0787
1308.50,0.0792
1308.00,0.0796
1307.50,0.0801
1307.00,0.0806
1306.50,0.0810
1306.00,0.0815
1305.50,0.0820
1305.00,0.0825
1304.50,0.0830
1304.00,0.0835
1303.50,0.0841
1303.00,0.0847
1302.50,0.0853
1302.00,0.0859
1301.50,0.0865
1301.00,0.0871
1300.50,0.0877
1300.00,0.0884
1299.50,0.0890
1299.00,0.0897
1298.50,0.0905
1298.00,0.0912
1297.50,0.0920
1297.00,0.0928
1296.50,0.0937
1296.00,0.0945
1295.50,0.0954
1295.00,0.0963
1294.50,0.0972
1294.00,0.0982
1293.50,0.0992
1293.00,0.1002
1292.50,0.1013
1292.00,0.1024
1291.50,0.1035
1291.00,0.1047
1290.50,0.1059
1290.00,0.1072
1289.50,0.1085
1289.00,0.1098
1288.50,0.1112
1288.00,0.1126
1287.50,0.1141
1287.00,0.1157
1286.50,0.1174
1286.00,0.1191
1285.50,0.1209
1285.00,0.1228
1284.50,0.1249
1284.00,0.1270
1283.50,0.1294
1283.00,0.1318
1282.50,0.1345
1282.00,0.1373
1281.50,0.1404
1281.00,0.1437
1280.50,0.1472
1280.00,0.1510
1279.50,0.1551
1279.00,0.1596
1278.50,0.1645
1278.00,0.1698
1277.50,0.1757
1277.00,0.1822
1276.50,0.1893
1276.00,0.1971
1275.50,0.2058
1275.00,0.2154
1274.50,0.2262
1274.00,0.2381
1273.50,0.2514
1273.00,0.2664
1272.50,0.2835
1272.00,0.3030
1271.50,0.3254
1271.00,0.3510
1270.50,0.3803
1270.00,0.4138
1269.50,0.4523
1269.00,0.4962
1268.50,0.5456
1268.00,0.6004
1267.50,0.6605
1267.00,0.7253
1266.50,0.7930
1266.00,0.8620
1265.50,0.9305
1265.00,0.9966
1264.50,1.0575
1264.00,1.1111
1263.50,1.1567
1263.00,1.1937
1262.50,1.2199
1262.00,1.2350
1261.50,1.2408
1261.00,1.2383
1260.50,1.2265
1260.00,1.2062
1259.50,1.1802
1259.00,1.1495
1258.50,1.1139
1258.00,1.0741
1257.50,1.0326
1257.00,0.9905
1256.50,0.9481
1256.00,0.9061
1255.50,0.8657
1255.00,0.8272
1254.50,0.7896
1254.00,0.7524
1253.50,0.7156
1253.00,0.6787
1252.50,0.6410
1252.00,0.6025
1251.50,0.5639
1251.00,0.5258
1250.50,0.4887
1250.00,0.4534
1249.50,0.4207
1249.00,0.3908
1248.50,0.3636
1248.00,0.3393
1247.50,0.3177
1247.00,0.2987
1246.50,0.2819
1246.00,0.2672
1245.50,0.2543
1245.00,0.2430
1244.50,0.2331
1244.00,0.2242
1243.50,0.2163
1243.00,0.2093
1242.50,0.2031
1242.00,0.1976
1241.50,0.1926
1241.00,0.1883
1240.50,0.1844
1240.00,0.1808
1239.50,0.1777
1239.00,0.1749
1238.50,0.1724
1238.00,0.1701
1237.50,0.1681
1237.00,0.1664
1236.50,0.1648
1236.00,0.1634
1235.50,0.1622
1235.00,0.1612
1234.50,0.1604
1234.00,0.1597
1233.50,0.1591
1233.00,0.1586
1232.50,0.1583
1232.00,0.1581
1231.50,0.1580
1231.00,0.1580
1230.50,0.1581
1230.00,0.1583
1229.50,0.1587
1229.00,0.1591
1228.50,0.1596
1228.00,0.1602
1227.50,0.1609
1227.00,0.1617
1226.50,0.1626
1226.00,0.1636
1225.50,0.1646
1225.00,0.1657
1224.50,0.1669
1224.00,0.1681
1223.50,0.1694
1223.00,0.1708
1222.50,0.1723
1222.00,0.1738
1221.50,0.1754
1221.00,0.1772
1220.50,0.1789
1220.00,0.1808
1219.50,0.1826
1219.00,0.1846
1218.50,0.1866
1218.00,0.1886
1217.50,0.1906
1217.00,0.1928
1216.50,0.1949
1216.00,0.1971
1215.50,0.1993
1215.00,0.2016
1214.50,0.2039
1214.00,0.2062
1213.50,0.2086
1213.00,0.2109
1212.50,0.2133
1212.00,0.2157
1211.50,0.2181
1211.00,0.2205
1210.50,0.2229
1210.00,0.2253
1209.50,0.2276
1209.00,0.2300
1208.50,0.2324
1208.00,0.2347
1207.50,0.2370
1207.00,0.2394
1206.50,0.2417
1206.00,0.2439
1205.50,0.2462
1205.00,0.2484
1204.50,0.2506
1204.00,0.2527
1203.50,0.2547
1203.00,0.2568
1202.50,0.2588
1202.00,0.2608
1201.50,0.2627
1201.00,0.2647
1200.50,0.2666
1200.00,0.2684
1199.50,0.2702
1199.00,0.2719
1198.50,0.2736
1198.00,0.2753
1197.50,0.2769
1197.00,0.2785
1196.50,0.2801
1196.00,0.2816
1195.50,0.2831
1195.00,0.2846
1194.50,0.2860
1194.00,0.2873
1193.50,0.2887
1193.00,0.2900
1192.50,0.2913
1192.00,0.2925
1191.50,0.2937
1191.00,0.2949
1190.50,0.2961
1190.00,0.2972
1189.50,0.2983
1189.00,0.2995
1188.50,0.3006
1188.00,0.3016
1187.50,0.3026
1187.00,0.3036
1186.50,0.3046
1186.00,0.3056
1185.50,0.3065
1185.00,0.3075
1184.50,0.3085
1184.00,0.3093
1183.50,0.3102
1183.00,0.3112
1182.50,0.3121
1182.00,0.3130
1181.50,0.3140
1181.00,0.3150
1180.50,0.3159
1180.00,0.3168
1179.50,0.3178
1179.00,0.3188
1178.50,0.3198
1178.00,0.3207
1177.50,0.3217
1177.00,0.3228
1176.50,0.3238
1176.00,0.3249
1175.50,0.3260
1175.00,0.3271
1174.50,0.3283
1174.00,0.3294
1173.50,0.3305
1173.00,0.3316
1172.50,0.3328
1172.00,0.3338
1171.50,0.3349
1171.00,0.3361
1170.50,0.3372
1170.00,0.3382
1169.50,0.3393
1169.00,0.3406
1168.50,0.3418
1168.00,0.3430
1167.50,0.3442
1167.00,0.3456
1166.50,0.3469
1166.00,0.3482
1165.50,0.3496
1165.00,0.3510
1164.50,0.3525
1164.00,0.3539
1163.50,0.3555
1163.00,0.3571
1162.50,0.3587
1162.00,0.3603
1161.50,0.3620
1161.00,0.3638
1160.50,0.3656
1160.00,0.3674
1159.50,0.3693
1159.00,0.3713
1158.50,0.3733
1158.00,0.3753
1157.50,0.3774
1157.00,0.3796
1156.50,0.3818
1156.00,0.3840
1155.50,0.3863
1155.00,0.3888
1154.50,0.3912
1154.00,0.3937
1153.50,0.3963
1153.00,0.3990
1152.50,0.4017
1152.00,0.4045
1151.50,0.4074
1151.00,0.4104
1150.50,0.4135
1150.00,0.4165
1149.50,0.4198
1149.00,0.4232
1148.50,0.4266
1148.00,0.4301
1147.50,0.4336
1147.00,0.4374
1146.50,0.4413
1146.00,0.4452
1145.50,0.4493
1145.00,0.4536
1144.50,0.4580
1144.00,0.4624
1143.50,0.4670
1143.00,0.4718
1142.50,0.4767
1142.00,0.4816
1141.50,0.4867
1141.00,0.4921
1140.50,0.4976
1140.00,0.5032
1139.50,0.5090
1139.00,0.5150
1138.50,0.5211
1138.00,0.5272
1137.50,0.5335
1137.00,0.5401
1136.50,0.5468
1136.00,0.5536
1135.50,0.5606
1135.00,0.5680
1134.50,0.5757
1134.00,0.5834
1133.50,0.5915
1133.00,0.6000
1132.50,0.6088
1132.00,0.6176
1131.50,0.6268
1131.00,0.6365
1130.50,0.6464
1130.00,0.6564
1129.50,0.6669
1129.00,0.6778
1128.50,0.6890
1128.00,0.7003
1127.50,0.7121
1127.00,0.7244
1126.50,0.7371
1126.00,0.7498
1125.50,0.7630
1125.00,0.7768
1124.50,0.7909
1124.00,0.8050
1123.50,0.8196
1123.00,0.8347
1122.50,0.8499
1122.00,0.8650
1121.50,0.8807
1121.00,0.8970
1120.50,0.9135
1120.00,0.9299
1119.50,0.9469
1119.00,0.9644
1118.50,0.9819
1118.00,0.9992
1117.50,1.0168
1117.00,1.0351
1116.50,1.0533
1116.00,1.0711
1115.50,1.0892
1115.00,1.1078
1114.50,1.1262
1114.00,1.1440
1113.50,1.1624
1113.00,1.1815
1112.50,1.2001
1112.00,1.2178
1111.50,1.2360
1111.00,1.2548
1110.50,1.2731
1110.00,1.2905
1109.50,1.3081
1109.00,1.3265
1108.50,1.3438
1108.00,1.3597
1107.50,1.3758
1107.00,1.3928
1106.50,1.4092
1106.00,1.4244
1105.50,1.4402
1105.00,1.4569
1104.50,1.4723
1104.00,1.4860
1103.50,1.5000
1103.00,1.5150
1102.50,1.5285
1102.00,1.5399
1101.50,1.5517
1101.00,1.5646
1100.50,1.5763
1100.00,1.5859
1099.50,1.5964
1099.00,1.6084
1098.50,1.6188
1098.00,1.6264
1097.50,1.6343
1097.00,1.6437
1096.50,1.6516
1096.00,1.6573
1095.50,1.6638
1095.00,1.6717
1094.50,1.6774
1094.00,1.6804
1093.50,1.6846
1093.00,1.6910
1092.50,1.6956
1092.00,1.6975
1091.50,1.7001
1091.00,1.7043
1090.50,1.7063
1090.00,1.7056
1089.50,1.7061
1089.00,1.7087
1088.50,1.7093
1088.00,1.7071
1087.50,1.7060
1087.00,1.7068
1086.50,1.7061
1086.00,1.7034
1085.50,1.7019
1085.00,1.7021
1084.50,1.7001
1084.00,1.6953
1083.50,1.6919
1083.00,1.6907
1082.50,1.6877
1082.00,1.6819
1081.50,1.6772
1081.00,1.6749
1080.50,1.6716
1080.00,1.6662
1079.50,1.6617
1079.00,1.6589
1078.50,1.6547
1078.00,1.6485
1077.50,1.6433
1077.00,1.6399
1076.50,1.6349
1076.00,1.6280
1075.50,1.6223
1075.00,1.6184
1074.50,1.6133
1074.00,1.6063
1073.50,1.6004
1073.00,1.5965
1072.50,1.5914
1072.00,1.5846
1071.50,1.5786
1071.00,1.5741
1070.50,1.5686
1070.00,1.5617
1069.50,1.5561
1069.00,1.5522
1068.50,1.5473
1068.00,1.5405
1067.50,1.5344
1067.00,1.5296
1066.50,1.5237
1066.00,1.5163
1065.50,1.5100
1065.00,1.5053
1064.50,1.5000
1064.00,1.4935
1063.50,1.4876
1063.00,1.4831
1062.50,1.4780
1062.00,1.4717
1061.50,1.4661
1061.00,1.4617
1060.50,1.4565
1060.00,1.4502
1059.50,1.4445
1059.00,1.4399
1058.50,1.4347
1058.00,1.4286
1057.50,1.4232
1057.00,1.4189
1056.50,1.4140
1056.00,1.4082
1055.50,1.4031
1055.00,1.3993
1054.50,1.3950
1054.00,1.3898
1053.50,1.3856
1053.00,1.3826
1052.50,1.3791
1052.00,1.3742
1051.50,1.3699
1051.00,1.3668
1050.50,1.3634
1050.00,1.3593
1049.50,1.3563
1049.00,1.3545
1048.50,1.3521
1048.00,1.3488
1047.50,1.3463
1047.00,1.3449
1046.50,1.3431
1046.00,1.3406
1045.50,1.3388
1045.00,1.3381
1044.50,1.3372
1044.00,1.3357
1043.50,1.3349
1043.00,1.3352
1042.50,1.3350
1042.00,1.3340
1041.50,1.3338
1041.00,1.3348
1040.50,1.3354
1040.00,1.3352
1039.50,1.3356
1039.00,1.3370
1038.50,1.3381
1038.00,1.3387
1037.50,1.3399
1037.00,1.3420
1036.50,1.3438
1036.00,1.3450
1035.50,1.3469
1035.00,1.3497
1034.50,1.3520
1034.00,1.3535
1033.50,1.3556
1033.00,1.3586
1032.50,1.3610
1032.00,1.3625
1031.50,1.3647
1031.00,1.3680
1030.50,1.3711
1030.00,1.3735
1029.50,1.3763
1029.00,1.3799
1028.50,1.3830
1028.00,1.3853
1027.50,1.3881
1027.00,1.3919
1026.50,1.3950
1026.00,1.3971
1025.50,1.3994
1025.00,1.4023
1024.50,1.4046
1024.00,1.4059
1023.50,1.4076
1023.00,1.4099
1022.50,1.4112
1022.00,1.4111
1021.50,1.4110
1021.00,1.4112
1020.50,1.4103
1020.00,1.4078
1019.50,1.4050
1019.00,1.4022
1018.50,1.3980
1018.00,1.3919
1017.50,1.3853
1017.00,1.3783
1016.50,1.3694
1016.00,1.3585
1015.50,1.3466
1015.00,1.3342
1014.50,1.3201
1014.00,1.3040
1013.50,1.2870
1013.00,1.2696
1012.50,1.2510
1012.00,1.2309
1011.50,1.2103
1011.00,1.1895
1010.50,1.1678
1010.00,1.1454
1009.50,1.1232
1009.00,1.1015
1008.50,1.0798
1008.00,1.0578
1007.50,1.0365
1007.00,1.0159
1006.50,0.9957
1006.00,0.9758
1005.50,0.9566
1005.00,0.9383
1004.50,0.9204
1004.00,0.9031
1003.50,0.8866
1003.00,0.8711
1002.50,0.8561
1002.00,0.8416
1001.50,0.8279
1001.00,0.8151
1000.50,0.8030
1000.00,0.7915
999.50,0.7807
999.00,0.7706
998.50,0.7611
998.00,0.7519
997.50,0.7434
997.00,0.7356
996.50,0.7282
996.00,0.7210
995.50,0.7144
995.00,0.7084
994.50,0.7026
994.00,0.6971
993.50,0.6921
993.00,0.6875
992.50,0.6831
992.00,0.6789
991.50,0.6750
991.00,0.6715
990.50,0.6683
990.00,0.6652
989.50,0.6624
989.00,0.6599
988.50,0.6575
988.00,0.6552
987.50,0.6532
987.00,0.6514
986.50,0.6498
986.00,0.6483
985.50,0.6470
985.00,0.6459
984.50,0.6448
984.00,0.6438
983.50,0.6430
983.00,0.6424
982.50,0.6419
982.00,0.6414
981.50,0.6411
981.00,0.6411
980.50,0.6411
980.00,0.6411
979.50,0.6412
979.00,0.6415
978.50,0.6419
978.00,0.6423
977.50,0.6428
977.00,0.6435
976.50,0.6443
976.00,0.6451
975.50,0.6459
975.00,0.6469
974.50,0.6480
974.00,0.6490
973.50,0.6501
973.00,0.6515
972.50,0.6528
972.00,0.6541
971.50,0.6556
971.00,0.6572
970.50,0.6588
970.00,0.6604
969.50,0.6620
969.00,0.6639
968.50,0.6658
968.00,0.6677
967.50,0.6696
967.00,0.6717
966.50,0.6738
966.00,0.6759
965.50,0.6781
965.00,0.6804
964.50,0.6828
964.00,0.6851
963.50,0.6875
963.00,0.6901
962.50,0.6928
962.00,0.6954
961.50,0.6981
961.00,0.7009
960.50,0.7036
960.00,0.7063
959.50,0.7090
959.00,0.7119
958.50,0.7148
958.00,0.7176
957.50,0.7205
957.00,0.7234
956.50,0.7262
956.00,0.7289
955.50,0.7315
955.00,0.7343
954.50,0.7370
954.00,0.7395
953.50,0.7421
953.00,0.7447
952.50,0.7473
952.00,0.7497
951.50,0.7522
951.00,0.7549
950.50,0.7576
950.00,0.7602
949.50,0.7630
949.00,0.7660
948.50,0.7690
948.00,0.7719
947.50,0.7750
947.00,0.7783
946.50,0.7815
946.00,0.7847
945.50,0.7881
945.00,0.7916
944.50,0.7952
944.00,0.7986
943.50,0.8022
943.00,0.8060
942.50,0.8098
942.00,0.8135
941.50,0.8174
941.00,0.8214
940.50,0.8253
940.00,0.8291
939.50,0.8329
939.00,0.8370
938.50,0.8410
938.00,0.8450
937.50,0.8492
937.00,0.8536
936.50,0.8580
936.00,0.8623
935.50,0.8667
935.00,0.8714
934.50,0.8761
934.00,0.8806
933.50,0.8853
933.00,0.8901
932.50,0.8950
932.00,0.8998
931.50,0.9048
931.00,0.9101
930.50,0.9152
930.00,0.9202
929.50,0.9253
929.00,0.9307
928.50,0.9361
928.00,0.9413
927.50,0.9466
927.00,0.9522
926.50,0.9576
926.00,0.9628
925.50,0.9682
925.00,0.9738
924.50,0.9794
924.00,0.9848
923.50,0.9904
923.00,0.9963
922.50,1.0023
922.00,1.0081
921.50,1.0143
921.00,1.0209
920.50,1.0276
920.00,1.0341
919.50,1.0409
919.00,1.0480
918.50,1.0550
918.00,1.0616
917.50,1.0685
917.00,1.0756
916.50,1.0825
916.00,1.0889
915.50,1.0954
915.00,1.1020
914.50,1.1083
914.00,1.1142
913.50,1.1202
913.00,1.1266
912.50,1.1328
912.00,1.1384
911.50,1.1438
911.00,1.1493
910.50,1.1546
910.00,1.1594
909.50,1.1643
909.00,1.1696
908.50,1.1745
908.00,1.1791
907.50,1.1838
907.00,1.1889
906.50,1.1940
906.00,1.1989
905.50,1.2041
905.00,1.2099
904.50,1.2155
904.00,1.2208
903.50,1.2263
903.00,1.2326
902.50,1.2389
902.00,1.2451
901.50,1.2516
901.00,1.2589
900.50,1.2660
900.00,1.2728
899.50,1.2799
899.00,1.2877
898.50,1.2953
898.00,1.3023
897.50,1.3096
897.00,1.3175
896.50,1.3251
896.00,1.3322
895.50,1.3396
895.00,1.3479
894.50,1.3561
894.00,1.3637
893.50,1.3714
893.00,1.3797
892.50,1.3878
892.00,1.3954
891.50,1.4034
891.00,1.4124
890.50,1.4213
890.00,1.4294
889.50,1.4378
889.00,1.4472
888.50,1.4565
888.00,1.4654
887.50,1.4749
887.00,1.4855
886.50,1.4958
886.00,1.5052
885.50,1.5150
885.00,1.5259
884.50,1.5367
884.00,1.5470
883.50,1.5583
883.00,1.5711
882.50,1.5835
882.00,1.5946
881.50,1.6061
881.00,1.6188
880.50,1.6313
880.00,1.6427
879.50,1.6550
879.00,1.6693
878.50,1.6835
878.00,1.6965
877.50,1.7102
877.00,1.7256
876.50,1.7404
876.00,1.7535
875.50,1.7677
875.00,1.7841
874.50,1.8002
874.00,1.8143
873.50,1.8293
873.00,1.8468
872.50,1.8637
872.00,1.8778
871.50,1.8917
871.00,1.9071
870.50,1.9210
870.00,1.9318
869.50,1.9432
869.00,1.9572
868.50,1.9698
868.00,1.9785
867.50,1.9865
867.00,1.9961
866.50,2.0041
866.00,2.0090
865.50,2.0146
865.00,2.0221
864.50,2.0269
864.00,2.0275
863.50,2.0288
863.00,2.0333
862.50,2.0374
862.00,2.0387
861.50,2.0410
861.00,2.0460
860.50,2.0498
860.00,2.0511
859.50,2.0545
859.00,2.0619
858.50,2.0686
858.00,2.0722
857.50,2.0767
857.00,2.0843
856.50,2.0904
856.00,2.0932
855.50,2.0974
855.00,2.1063
854.50,2.1158
854.00,2.1239
853.50,2.1348
853.00,2.1499
852.50,2.1634
852.00,2.1724
851.50,2.1825
851.00,2.1966
850.50,2.2088
850.00,2.2158
849.50,2.2238
849.00,2.2364
848.50,2.2477
848.00,2.2533
847.50,2.2590
847.00,2.2683
846.50,2.2757
846.00,2.2784
845.50,2.2831
845.00,2.2925
844.50,2.2997
844.00,2.3019
843.50,2.3070
843.00,2.3171
842.50,2.3224
842.00,2.3188
841.50,2.3161
841.00,2.3201
840.50,2.3240
840.00,2.3224
839.50,2.3222
839.00,2.3273
838.50,2.3308
838.00,2.3287
837.50,2.3284
837.00,2.3339
836.50,2.3382
836.00,2.3381
835.50,2.3419
835.00,2.3532
834.50,2.3621
834.00,2.3625
833.50,2.3635
833.00,2.3717
832.50,2.3795
832.00,2.3807
831.50,2.3827
831.00,2.3913
830.50,2.3985
830.00,2.3996
829.50,2.4044
829.00,2.4176
828.50,2.4283
828.00,2.4310
827.50,2.4376
827.00,2.4545
826.50,2.4675
826.00,2.4668
825.50,2.4656
825.00,2.4734
824.50,2.4792
824.00,2.4771
823.50,2.4809
823.00,2.4960
822.50,2.5045
822.00,2.4974
821.50,2.4913
821.00,2.4975
820.50,2.5052
820.00,2.5061
819.50,2.5100
819.00,2.5222
818.50,2.5298
818.00,2.5266
817.50,2.5251
817.00,2.5307
816.50,2.5308
816.00,2.5205
815.50,2.5147
815.00,2.5218
814.50,2.5295
814.00,2.5279
813.50,2.5266
813.00,2.5332
812.50,2.5380
812.00,2.5347
811.50,2.5333
811.00,2.5388
810.50,2.5405
810.00,2.5338
809.50,2.5304
809.00,2.5358
808.50,2.5381
808.00,2.5328
807.50,2.5331
807.00,2.5442
806.50,2.5522
806.00,2.5490
805.50,2.5457
805.00,2.5498
804.50,2.5524
804.00,2.5481
803.50,2.5470
803.00,2.5540
802.50,2.5565
802.00,2.5480
801.50,2.5414
801.00,2.5442
800.50,2.5457
800.00,2.5394
799.50,2.5351
799.00,2.5395
798.50,2.5447
798.00,2.5452
797.50,2.5481
797.00,2.5562
796.50,2.5579
796.00,2.5489
795.50,2.5420
795.00,2.5447
794.50,2.5479
794.00,2.5462
793.50,2.5491
793.00,2.5600
792.50,2.5651
792.00,2.5578
791.50,2.5507
791.00,2.5520
790.50,2.5533
790.00,2.5496
789.50,2.5505
789.00,2.5597
788.50,2.5640
788.00,2.5572
787.50,2.5524
787.00,2.5564
786.50,2.5581
786.00,2.5511
785.50,2.5469
785.00,2.5511
784.50,2.5523
784.00,2.5441
783.50,2.5383
783.00,2.5425
782.50,2.5474
782.00,2.5460
781.50,2.5480
781.00,2.5598
780.50,2.5713
780.00,2.5728
779.50,2.5718
779.00,2.5749
778.50,2.5743
778.00,2.5667
777.50,2.5617
777.00,2.5631
776.50,2.5606
776.00,2.5503
775.50,2.5459
775.00,2.5544
774.50,2.5639
774.00,2.5637
773.50,2.5604
773.00,2.5608
772.50,2.5581
772.00,2.5502
771.50,2.5472
771.00,2.5540
770.50,2.5607
770.00,2.5607
769.50,2.5626
769.00,2.5715
768.50,2.5764
768.00,2.5712
767.50,2.5665
767.00,2.5697
766.50,2.5722
766.00,2.5670
765.50,2.5629
765.00,2.5665
764.50,2.5690
764.00,2.5640
763.50,2.5593
763.00,2.5616
762.50,2.5641
762.00,2.5600
761.50,2.5559
761.00,2.5579
760.50,2.5602
760.00,2.5592
759.50,2.5617
759.00,2.5686
758.50,2.5690
758.00,2.5602
757.50,2.5538
757.00,2.5561
756.50,2.5584
756.00,2.5559
755.50,2.5562
755.00,2.5645
754.50,2.5713
754.00,2.5710
753.50,2.5728
753.00,2.5814
752.50,2.5852
752.00,2.5777
751.50,2.5719
751.00,2.5770
750.50,2.5859
750.00,2.5896
749.50,2.5931
749.00,2.5996
748.50,2.5983
748.00,2.5842
747.50,2.5703
747.00,2.5680
746.50,2.5714
746.00,2.5725
745.50,2.5745
745.00,2.5802
744.50,2.5819
744.00,2.5759
743.50,2.5708
743.00,2.5719
742.50,2.5714
742.00,2.5649
741.50,2.5608
741.00,2.5653
740.50,2.5715
740.00,2.5737
739.50,2.5766
739.00,2.5823
738.50,2.5824
738.00,2.5738
737.50,2.5669
737.00,2.5677
736.50,2.5675
736.00,2.5607
735.50,2.5572
735.00,2.5648
734.50,2.5749
734.00,2.5783
733.50,2.5786
733.00,2.5810
732.50,2.5818
732.00,2.5787
731.50,2.5779
731.00,2.5822
730.50,2.5842
730.00,2.5823
729.50,2.5851
729.00,2.5940
728.50,2.5974
728.00,2.5909
727.50,2.5858
727.00,2.5888
726.50,2.5899
726.00,2.5820
725.50,2.5752
725.00,2.5790
724.50,2.5849
724.00,2.5832
723.50,2.5789
723.00,2.5789
722.50,2.5787
722.00,2.5751
721.50,2.5750
721.00,2.5839
720.50,2.5931
720.00,2.5912
719.50,2.5827
719.00,2.5765
718.50,2.5712
718.00,2.5660
717.50,2.5685
717.00,2.5807
716.50,2.5917
716.00,2.5934
715.50,2.5922
715.00,2.5958
714.50,2.5993
714.00,2.5974
713.50,2.5944
713.00,2.5941
712.50,2.5905
712.00,2.5799
711.50,2.5704
711.00,2.5689
710.50,2.5697
710.00,2.5682
709.50,2.5696
709.00,2.5763
708.50,2.5807
708.00,2.5782
707.50,2.5776
707.00,2.5872
706.50,2.6002
706.00,2.6057
705.50,2.6055
705.00,2.6065
704.50,2.6060
704.00,2.6009
703.50,2.5949
703.00,2.5924
702.50,2.5903
702.00,2.5865
701.50,2.5853
701.00,2.5887
700.50,2.5919
700.00,2.5935
699.50,2.5988
699.00,2.6096
698.50,2.6170
698.00,2.6136
697.50,2.6049
697.00,2.5980
696.50,2.5911
696.00,2.5843
695.50,2.5832
695.00,2.5902
694.50,2.5987
694.00,2.6021
693.50,2.6029
693.00,2.6029
692.50,2.5982
692.00,2.5909
691.50,2.5904
691.00,2.6016
690.50,2.6140
690.00,2.6152
689.50,2.6094
689.00,2.6077
688.50,2.6086
688.00,2.6093
687.50,2.6151
687.00,2.6265
686.50,2.6317
686.00,2.6241
685.50,2.6142
685.00,2.6127
684.50,2.6141
684.00,2.6097
683.50,2.6025
683.00,2.5983
682.50,2.5952
682.00,2.5922
681.50,2.5947
681.00,2.6034
680.50,2.6082
680.00,2.6057
679.50,2.6037
679.00,2.6072
678.50,2.6093
678.00,2.6051
677.50,2.6032
677.00,2.6096
676.50,2.6155
676.00,2.6118
675.50,2.6037
675.00,2.6043
674.50,2.6120
674.00,2.6201
673.50,2.6261
673.00,2.6294
672.50,2.6270
672.00,2.6175
671.50,2.6062
671.00,2.5991
670.50,2.5915
670.00,2.5778
669.50,2.5642
669.00,2.5599
668.50,2.5638
668.00,2.5778
667.50,2.5996
667.00,2.6153
666.50,2.6212
666.00,2.6196
665.50,2.6147
665.00,2.6113
664.50,2.6068
664.00,2.5979
663.50,2.5902
663.00,2.5898
662.50,2.5951
662.00,2.6024
661.50,2.6059
661.00,2.6030
660.50,2.5930
660.00,2.5798
659.50,2.5728
659.00,2.5780
658.50,2.5910
658.00,2.6036
657.50,2.6113
657.00,2.6124
656.50,2.6062
656.00,2.5958
655.50,2.5873
655.00,2.5855
654.50,2.5896
654.00,2.5951
653.50,2.5991
653.00,2.6010
652.50,2.5996
652.00,2.5941
651.50,2.5860
651.00,2.5786
650.50,2.5757
650.00,2.5793
649.50,2.5871
649.00,2.5958
648.50,2.6009
648.00,2.6019
647.50,2.6018
647.00,2.6045
646.50,2.6049
646.00,2.5994
645.50,2.5921
645.00,2.5888
644.50,2.5927
644.00,2.6058
643.50,2.6275
643.00,2.6533
642.50,2.6763
642.00,2.6882
641.50,2.6825
641.00,2.6688
640.50,2.6588
640.00,2.6558
639.50,2.6591
639.00,2.6632
638.50,2.6623
638.00,2.6560
637.50,2.6474
637.00,2.6448
636.50,2.6533
636.00,2.6702
635.50,2.6898
635.00,2.7074
634.50,2.7107
634.00,2.6972
633.50,2.6766
633.00,2.6578
632.50,2.6418
632.00,2.6324
631.50,2.6356
631.00,2.6496
630.50,2.6610
630.00,2.6610
629.50,2.6568
629.00,2.6579
628.50,2.6591
628.00,2.6478
627.50,2.6264
627.00,2.6107
626.50,2.6036
626.00,2.5985
625.50,2.5931
625.00,2.5888
624.50,2.5848
624.00,2.5815
623.50,2.5817
623.00,2.5889
622.50,2.6034
622.00,2.6245
621.50,2.6463
621.00,2.6638
620.50,2.6763
620.00,2.6841
619.50,2.6840
619.00,2.6791
618.50,2.6737
618.00,2.6642
617.50,2.6491
617.00,2.6400
616.50,2.6416
616.00,2.6467
615.50,2.6478
615.00,2.6448
614.50,2.6492
614.00,2.6695
613.50,2.6912
613.00,2.6972
612.50,2.6926
612.00,2.6894
611.50,2.6982
611.00,2.7174
610.50,2.7292
610.00,2.7225
609.50,2.6918
609.00,2.6524
608.50,2.6324
608.00,2.6488
607.50,2.6862
607.00,2.7150
606.50,2.7232
606.00,2.7191
605.50,2.7158
605.00,2.7137
604.50,2.7024
604.00,2.6769
603.50,2.6450
603.00,2.6183
602.50,2.5975
602.00,2.5858
601.50,2.5898
601.00,2.6065
600.50,2.6276
600.00,2.6518
599.50,2.6722
599.00,2.6829
598.50,2.6883
598.00,2.6907
597.50,2.6905
597.00,2.6905
596.50,2.6898
596.00,2.6903
595.50,2.6874
595.00,2.6751
594.50,2.6522
594.00,2.6253
593.50,2.6108
593.00,2.6200
592.50,2.6480
592.00,2.6780
591.50,2.6857
591.00,2.6689
590.50,2.6442
590.00,2.6313
589.50,2.6394
589.00,2.6618
588.50,2.6837
588.00,2.6857
587.50,2.6702
587.00,2.6564
586.50,2.6497
586.00,2.6465
585.50,2.6419
585.00,2.6417
584.50,2.6572
584.00,2.6796
583.50,2.6852
583.00,2.6787
582.50,2.6774
582.00,2.6916
581.50,2.7140
581.00,2.7278
580.50,2.7187
580.00,2.6849
579.50,2.6445
579.00,2.6216
578.50,2.6253
578.00,2.6462
577.50,2.6571
577.00,2.6464
576.50,2.6335
576.00,2.6373
575.50,2.6528
575.00,2.6687
574.50,2.6837
574.00,2.6948
573.50,2.6904
573.00,2.6766
572.50,2.6676
572.00,2.6669
571.50,2.6668
571.00,2.6622
570.50,2.6561
570.00,2.6501
569.50,2.6420
569.00,2.6375
568.50,2.6435
568.00,2.6587
567.50,2.6715
567.00,2.6768
566.50,2.6824
566.00,2.6877
565.50,2.6769
565.00,2.6573
564.50,2.6531
564.00,2.6697
563.50,2.6877
563.00,2.6885
562.50,2.6789
562.00,2.6705
561.50,2.6593
561.00,2.6476
560.50,2.6504
560.00,2.6690
559.50,2.6761
559.00,2.6625
558.50,2.6547
558.00,2.6651
557.50,2.6745
557.00,2.6640
556.50,2.6489
556.00,2.6544
555.50,2.6710
555.00,2.6806
554.50,2.6888
554.00,2.7025
553.50,2.7081
553.00,2.7014
552.50,2.6979
552.00,2.7081
551.50,2.7159
551.00,2.7059
550.50,2.6900
550.00,2.6870
549.50,2.6862
549.00,2.6756
548.50,2.6685
548.00,2.6714
547.50,2.6771
547.00,2.6832
546.50,2.6909
546.00,2.7016
545.50,2.7036
545.00,2.6938
544.50,2.6915
544.00,2.7014
543.50,2.7036
543.00,2.6945
542.50,2.7025
542.00,2.7369
541.50,2.7462
541.00,2.7056
540.50,2.6632
540.00,2.6522
539.50,2.6543
539.00,2.6481
538.50,2.6445
538.00,2.6560
537.50,2.6691
537.00,2.6673
536.50,2.6619
536.00,2.6733
535.50,2.6918
535.00,2.6983
534.50,2.6977
534.00,2.7045
533.50,2.7041
533.00,2.6861
532.50,2.6753
532.00,2.6821
531.50,2.6828
531.00,2.6632
530.50,2.6445
530.00,2.6432
529.50,2.6442
529.00,2.6355
528.50,2.6374
528.00,2.6675
527.50,2.6980
527.00,2.7007
526.50,2.6956
526.00,2.7035
525.50,2.7054
525.00,2.6904
524.50,2.6783
524.00,2.6830
523.50,2.6842
523.00,2.6687
522.50,2.6634
522.00,2.6779
521.50,2.6822
521.00,2.6647
520.50,2.6505
520.00,2.6555
519.50,2.6513
519.00,2.6210
518.50,2.5987
518.00,2.6057
517.50,2.6262
517.00,2.6385
516.50,2.6487
516.00,2.6747
515.50,2.6910
515.00,2.6703
514.50,2.6466
514.00,2.6540
513.50,2.6689
513.00,2.6676
512.50,2.6725
512.00,2.7046
511.50,2.7345
511.00,2.7306
510.50,2.7161
510.00,2.7145
509.50,2.7065
509.00,2.6816
508.50,2.6740
508.00,2.6939
507.50,2.6998
507.00,2.6791
506.50,2.6702
506.00,2.6921
505.50,2.7061
505.00,2.6841
504.50,2.6712
504.00,2.6980
503.50,2.7240
503.00,2.7098
502.50,2.6929
502.00,2.7167
501.50,2.7451
501.00,2.7313
500.50,2.7141
500.00,2.7265
499.50,2.7238
499.00,2.6840
498.50,2.6487
498.00,2.6485
497.50,2.6512
497.00,2.6275
496.50,2.6076
496.00,2.6186
495.50,2.6447
495.00,2.6542
494.50,2.6537
494.00,2.6702
493.50,2.6847
493.00,2.6722
492.50,2.6612
492.00,2.6762
491.50,2.6824
491.00,2.6571
490.50,2.6418
490.00,2.6574
489.50,2.6581
489.00,2.6221
488.50,2.5995
488.00,2.6213
487.50,2.6462
487.00,2.6290
486.50,2.6082
486.00,2.6301
485.50,2.6729
485.00,2.6913
484.50,2.6897
484.00,2.6869
483.50,2.6501
483.00,2.5894
482.50,2.5722
482.00,2.6205
481.50,2.6795
481.00,2.6908
480.50,2.6814
480.00,2.6895
479.50,2.6968
479.00,2.6796
478.50,2.6750
478.00,2.7194
477.50,2.7608
477.00,2.7273
476.50,2.6825
476.00,2.6883
475.50,2.6982
475.00,2.6692
474.50,2.6321
474.00,2.6093
473.50,2.5737
473.00,2.5203
472.50,2.5027
472.00,2.5587
471.50,2.6251
471.00,2.6272
470.50,2.6134
470.00,2.6420
469.50,2.6909
469.00,2.7099
468.50,2.7299
468.00,2.7871
467.50,2.7972
467.00,2.7142
466.50,2.6564
466.00,2.6778
465.50,2.7079
465.00,2.6771
464.50,2.6454
464.00,2.6777
463.50,2.7264
463.00,2.7081
462.50,2.6814
462.00,2.6971
461.50,2.6629
461.00,2.5841
460.50,2.5448
460.00,2.5689
459.50,2.6245
459.00,2.6574
458.50,2.6712
458.00,2.7036
457.50,2.6841
457.00,2.6044
456.50,2.5945
456.00,2.6844
455.50,2.7766
455.00,2.7768
454.50,2.7764
454.00,2.8796
453.50,3.0191
453.00,2.9686
452.50,2.8600
452.00,2.8430
451.50,2.8191
451.00,2.7174
450.50,2.6523
450.00,2.6732
449.50,2.6883
449.00,2.6306
448.50,2.6071
448.00,2.6949
447.50,2.8076
447.00,2.7715
446.50,2.7128
446.00,2.7642
445.50,2.8282
445.00,2.7840
444.50,2.7241
444.00,2.7366
443.50,2.7772
443.00,2.7418
442.50,2.6866
442.00,2.7074
441.50,2.7348
441.00,2.7008
440.50,2.7016
440.00,2.8139
439.50,2.8983
439.00,2.7769
438.50,2.6748
438.00,2.7018
437.50,2.7568
437.00,2.6696
436.50,2.5562
436.00,2.5473
435.50,2.6041
435.00,2.6427
434.50,2.6645
434.00,2.7107
433.50,2.7297
433.00,2.6827
432.50,2.6619
432.00,2.7504
431.50,2.8512
431.00,2.7603
430.50,2.6471
430.00,2.6809
429.50,2.7957
429.00,2.7961
428.50,2.7348
428.00,2.7782
427.50,2.8590
427.00,2.7777
426.50,2.6919
426.00,2.7727
425.50,3.0062
425.00,2.9147
424.50,2.7032
424.00,2.6602
423.50,2.7366
423.00,2.7430
422.50,2.6656
422.00,2.7642
421.50,3.0721
421.00,3.2461
420.50,2.9036
420.00,2.6582
419.50,2.5865
419.00,2.7639
418.50,2.8099
418.00,2.8762
417.50,2.9686
417.00,2.8834
416.50,2.7895
416.00,2.8003
415.50,2.7368
415.00,2.5430
414.50,2.4475
414.00,2.5373
413.50,2.7397
413.00,2.7244
412.50,2.5693
412.00,2.5014
411.50,2.4822
411.00,2.4375
410.50,2.4059
410.00,2.4672
409.50,2.5317
409.00,2.4609
408.50,2.3945
408.00,2.4477
407.50,2.5375
407.00,2.4904
406.50,2.4455
406.00,2.5555
405.50,2.7344
405.00,2.6532
404.50,2.4980
404.00,2.5092
403.50,2.6221
403.00,2.7021
402.50,2.6729
402.00,2.6654
401.50,2.6487
401.00,2.4745
400.50,2.3690
400.00,2.4545
