Created as New Dataset,Sample 011 By irlear Date Monday, July 06 2009
cm-1,A
4000.00,0.0395
3999.50,0.0395
3999.00,0.0395
3998.50,0.0395
3998.00,0.0395
3997.50,0.0395
3997.00,0.0395
3996.50,0.0395
3996.00,0.0395
3995.50,0.0395
3995.00,0.0395
3994.50,0.0395
3994.00,0.0395
3993.50,0.0395
3993.00,0.0395
3992.50,0.0395
3992.00,0.0395
3991.50,0.0395
3991.00,0.0394
3990.50,0.0394
3990.00,0.0394
3989.50,0.0394
3989.00,0.0394
3988.50,0.0394
3988.00,0.0394
3987.50,0.0394
3987.00,0.0394
3986.50,0.0394
3986.00,0.0393
3985.50,0.0393
3985.00,0.0393
3984.50,0.0393
3984.00,0.0393
3983.50,0.0393
3983.00,0.0393
3982.50,0.0393
3982.00,0.0393
3981.50,0.0393
3981.00,0.0393
3980.50,0.0393
3980.00,0.0393
3979.50,0.0393
3979.00,0.0393
3978.50,0.0393
3978.00,0.0392
3977.50,0.0392
3977.00,0.0393
3976.50,0.0393
3976.00,0.0393
3975.50,0.0392
3975.00,0.0392
3974.50,0.0392
3974.00,0.0392
3973.50,0.0392
3973.00,0.0392
3972.50,0.0392
3972.00,0.0392
3971.50,0.0392
3971.00,0.0392
3970.50,0.0392
3970.00,0.0392
3969.50,0.0392
3969.00,0.0392
3968.50,0.0392
3968.00,0.0391
3967.50,0.0391
3967.00,0.0391
3966.50,0.0392
3966.00,0.0392
3965.50,0.0392
3965.00,0.0392
3964.50,0.0391
3964.00,0.0391
3963.50,0.0391
3963.00,0.0391
3962.50,0.0391
3962.00,0.0391
3961.50,0.0391
3961.00,0.0390
3960.50,0.0390
3960.00,0.0390
3959.50,0.0391
3959.00,0.0391
3958.50,0.0391
3958.00,0.0391
3957.50,0.0391
3957.00,0.0391
3956.50,0.0390
3956.00,0.0390
3955.50,0.0390
3955.00,0.0390
3954.50,0.0390
3954.00,0.0390
3953.50,0.0390
3953.00,0.0390
3952.50,0.0390
3952.00,0.0390
3951.50,0.0390
3951.00,0.0389
3950.50,0.0389
3950.00,0.0389
3949.50,0.0389
3949.00,0.0389
3948.50,0.0389
3948.00,0.0389
3947.50,0.0389
3947.00,0.0389
3946.50,0.0389
3946.00,0.0389
3945.50,0.0389
3945.00,0.0390
3944.50,0.0390
3944.00,0.0389
3943.50,0.0389
3943.00,0.0388
3942.50,0.0388
3942.00,0.0388
3941.50,0.0388
3941.00,0.0389
3940.50,0.0389
3940.00,0.0389
3939.50,0.0390
3939.00,0.0389
3938.50,0.0389
3938.00,0.0389
3937.50,0.0389
3937.00,0.0389
3936.50,0.0389
3936.00,0.0389
3935.50,0.0389
3935.00,0.0389
3934.50,0.0389
3934.00,0.0389
3933.50,0.0389
3933.00,0.0388
3932.50,0.0388
3932.00,0.0388
3931.50,0.0387
3931.00,0.0387
3930.50,0.0387
3930.00,0.0387
3929.50,0.0388
3929.00,0.0388
3928.50,0.0388
3928.00,0.0388
3927.50,0.0388
3927.00,0.0389
3926.50,0.0388
3926.00,0.0388
3925.50,0.0388
3925.00,0.0387
3924.50,0.0387
3924.00,0.0387
3923.50,0.0387
3923.00,0.0387
3922.50,0.0388
3922.00,0.0388
3921.50,0.0388
3921.00,0.0388
3920.50,0.0388
3920.00,0.0388
3919.50,0.0388
3919.00,0.0388
3918.50,0.0388
3918.00,0.0387
3917.50,0.0387
3917.00,0.0388
3916.50,0.0387
3916.00,0.0387
3915.50,0.0387
3915.00,0.0388
3914.50,0.0388
3914.00,0.0389
3913.50,0.0389
3913.00,0.0389
3912.50,0.0389
3912.00,0.0389
3911.50,0.0389
3911.00,0.0389
3910.50,0.0389
3910.00,0.0389
3909.50,0.0389
3909.00,0.0389
3908.50,0.0389
3908.00,0.0389
3907.50,0.0389
3907.00,0.0389
3906.50,0.0388
3906.00,0.0388
3905.50,0.0387
3905.00,0.0386
3904.50,0.0385
3904.00,0.0387
3903.50,0.0388
3903.00,0.0387
3902.50,0.0386
3902.00,0.0386
3901.50,0.0388
3901.00,0.0388
3900.50,0.0387
3900.00,0.0385
3899.50,0.0386
3899.00,0.0387
3898.50,0.0388
3898.00,0.0387
3897.50,0.0387
3897.00,0.0389
3896.50,0.0390
3896.00,0.0390
3895.50,0.0390
3895.00,0.0390
3894.50,0.0390
3894.00,0.0389
3893.50,0.0389
3893.00,0.0389
3892.50,0.0388
3892.00,0.0387
3891.50,0.0387
3891.00,0.0388
3890.50,0.0389
3890.00,0.0389
3889.50,0.0389
3889.00,0.0390
3888.50,0.0390
3888.00,0.0391
3887.50,0.0390
3887.00,0.0389
3886.50,0.0387
3886.00,0.0387
3885.50,0.0387
3885.00,0.0388
3884.50,0.0388
3884.00,0.0388
3883.50,0.0388
3883.00,0.0389
3882.50,0.0390
3882.00,0.0389
3881.50,0.0388
3881.00,0.0388
3880.50,0.0388
3880.00,0.0388
3879.50,0.0388
3879.00,0.0388
3878.50,0.0389
3878.00,0.0390
3877.50,0.0391
3877.00,0.0391
3876.50,0.0391
3876.00,0.0391
3875.50,0.0390
3875.00,0.0389
3874.50,0.0389
3874.00,0.0389
3873.50,0.0389
3873.00,0.0389
3872.50,0.0388
3872.00,0.0389
3871.50,0.0389
3871.00,0.0389
3870.50,0.0389
3870.00,0.0389
3869.50,0.0389
3869.00,0.0389
3868.50,0.0389
3868.00,0.0389
3867.50,0.0390
3867.00,0.0391
3866.50,0.0390
3866.00,0.0390
3865.50,0.0390
3865.00,0.0390
3864.50,0.0391
3864.00,0.0390
3863.50,0.0390
3863.00,0.0389
3862.50,0.0389
3862.00,0.0390
3861.50,0.0391
3861.00,0.0392
3860.50,0.0392
3860.00,0.0392
3859.50,0.0393
3859.00,0.0394
3858.50,0.0394
3858.00,0.0393
3857.50,0.0393
3857.00,0.0393
3856.50,0.0393
3856.00,0.0392
3855.50,0.0389
3855.00,0.0388
3854.50,0.0393
3854.00,0.0399
3853.50,0.0399
3853.00,0.0394
3852.50,0.0391
3852.00,0.0392
3851.50,0.0395
3851.00,0.0397
3850.50,0.0396
3850.00,0.0396
3849.50,0.0396
3849.00,0.0397
3848.50,0.0398
3848.00,0.0398
3847.50,0.0398
3847.00,0.0398
3846.50,0.0398
3846.00,0.0399
3845.50,0.0399
3845.00,0.0400
3844.50,0.0400
3844.00,0.0400
3843.50,0.0400
3843.00,0.0401
3842.50,0.0401
3842.00,0.0401
3841.50,0.0401
3841.00,0.0402
3840.50,0.0402
3840.00,0.0402
3839.50,0.0400
3839.00,0.0399
3838.50,0.0399
3838.00,0.0401
3837.50,0.0403
3837.00,0.0404
3836.50,0.0403
3836.00,0.0402
3835.50,0.0402
3835.00,0.0404
3834.50,0.0406
3834.00,0.0406
3833.50,0.0406
3833.00,0.0406
3832.50,0.0406
3832.00,0.0407
3831.50,0.0408
3831.00,0.0408
3830.50,0.0408
3830.00,0.0407
3829.50,0.0408
3829.00,0.0409
3828.50,0.0410
3828.00,0.0409
3827.50,0.0408
3827.00,0.0408
3826.50,0.0409
3826.00,0.0409
3825.50,0.0409
3825.00,0.0409
3824.50,0.0409
3824.00,0.0410
3823.50,0.0410
3823.00,0.0409
3822.50,0.0409
3822.00,0.0409
3821.50,0.0409
3821.00,0.0408
3820.50,0.0407
3820.00,0.0407
3819.50,0.0407
3819.00,0.0408
3818.50,0.0409
3818.00,0.0410
3817.50,0.0410
3817.00,0.0409
3816.50,0.0409
3816.00,0.0410
3815.50,0.0412
3815.00,0.0412
3814.50,0.0411
3814.00,0.0411
3813.50,0.0412
3813.00,0.0413
3812.50,0.0413
3812.00,0.0414
3811.50,0.0414
3811.00,0.0414
3810.50,0.0414
3810.00,0.0414
3809.50,0.0414
3809.00,0.0414
3808.50,0.0414
3808.00,0.0413
3807.50,0.0414
3807.00,0.0415
3806.50,0.0416
3806.00,0.0416
3805.50,0.0415
3805.00,0.0415
3804.50,0.0416
3804.00,0.0416
3803.50,0.0417
3803.00,0.0416
3802.50,0.0415
3802.00,0.0415
3801.50,0.0415
3801.00,0.0417
3800.50,0.0418
3800.00,0.0417
3799.50,0.0417
3799.00,0.0417
3798.50,0.0419
3798.00,0.0419
3797.50,0.0419
3797.00,0.0419
3796.50,0.0420
3796.00,0.0420
3795.50,0.0421
3795.00,0.0421
3794.50,0.0421
3794.00,0.0422
3793.50,0.0423
3793.00,0.0424
3792.50,0.0424
3792.00,0.0425
3791.50,0.0425
3791.00,0.0426
3790.50,0.0426
3790.00,0.0427
3789.50,0.0427
3789.00,0.0428
3788.50,0.0429
3788.00,0.0429
3787.50,0.0430
3787.00,0.0431
3786.50,0.0431
3786.00,0.0432
3785.50,0.0432
3785.00,0.0432
3784.50,0.0433
3784.00,0.0434
3783.50,0.0434
3783.00,0.0435
3782.50,0.0436
3782.00,0.0437
3781.50,0.0438
3781.00,0.0438
3780.50,0.0437
3780.00,0.0437
3779.50,0.0438
3779.00,0.0438
3778.50,0.0439
3778.00,0.0440
3777.50,0.0441
3777.00,0.0442
3776.50,0.0443
3776.00,0.0444
3775.50,0.0444
3775.00,0.0445
3774.50,0.0446
3774.00,0.0446
3773.50,0.0446
3773.00,0.0447
3772.50,0.0447
3772.00,0.0448
3771.50,0.0448
3771.00,0.0448
3770.50,0.0448
3770.00,0.0448
3769.50,0.0449
3769.00,0.0449
3768.50,0.0449
3768.00,0.0450
3767.50,0.0450
3767.00,0.0451
3766.50,0.0451
3766.00,0.0451
3765.50,0.0451
3765.00,0.0451
3764.50,0.0451
3764.00,0.0451
3763.50,0.0452
3763.00,0.0452
3762.50,0.0453
3762.00,0.0453
3761.50,0.0453
3761.00,0.0453
3760.50,0.0453
3760.00,0.0452
3759.50,0.0452
3759.00,0.0451
3758.50,0.0451
3758.00,0.0451
3757.50,0.0451
3757.00,0.0452
3756.50,0.0452
3756.00,0.0452
3755.50,0.0452
3755.00,0.0451
3754.50,0.0452
3754.00,0.0451
3753.50,0.0450
3753.00,0.0449
3752.50,0.0450
3752.00,0.0451
3751.50,0.0451
3751.00,0.0449
3750.50,0.0446
3750.00,0.0445
3749.50,0.0448
3749.00,0.0450
3748.50,0.0449
3748.00,0.0447
3747.50,0.0446
3747.00,0.0446
3746.50,0.0446
3746.00,0.0444
3745.50,0.0442
3745.00,0.0442
3744.50,0.0443
3744.00,0.0442
3743.50,0.0442
3743.00,0.0442
3742.50,0.0441
3742.00,0.0441
3741.50,0.0442
3741.00,0.0442
3740.50,0.0441
3740.00,0.0440
3739.50,0.0439
3739.00,0.0439
3738.50,0.0439
3738.00,0.0439
3737.50,0.0437
3737.00,0.0437
3736.50,0.0436
3736.00,0.0436
3735.50,0.0434
3735.00,0.0433
3734.50,0.0434
3734.00,0.0436
3733.50,0.0437
3733.00,0.0437
3732.50,0.0440
3732.00,0.0443
3731.50,0.0444
3731.00,0.0443
3730.50,0.0443
3730.00,0.0443
3729.50,0.0445
3729.00,0.0446
3728.50,0.0446
3728.00,0.0446
3727.50,0.0446
3727.00,0.0447
3726.50,0.0447
3726.00,0.0448
3725.50,0.0448
3725.00,0.0449
3724.50,0.0450
3724.00,0.0451
3723.50,0.0452
3723.00,0.0452
3722.50,0.0453
3722.00,0.0454
3721.50,0.0455
3721.00,0.0455
3720.50,0.0456
3720.00,0.0457
3719.50,0.0458
3719.00,0.0459
3718.50,0.0460
3718.00,0.0460
3717.50,0.0461
3717.00,0.0463
3716.50,0.0464
3716.00,0.0465
3715.50,0.0465
3715.00,0.0466
3714.50,0.0467
3714.00,0.0467
3713.50,0.0468
3713.00,0.0468
3712.50,0.0469
3712.00,0.0471
3711.50,0.0471
3711.00,0.0471
3710.50,0.0470
3710.00,0.0471
3709.50,0.0474
3709.00,0.0476
3708.50,0.0477
3708.00,0.0478
3707.50,0.0479
3707.00,0.0480
3706.50,0.0482
3706.00,0.0482
3705.50,0.0483
3705.00,0.0484
3704.50,0.0484
3704.00,0.0485
3703.50,0.0485
3703.00,0.0486
3702.50,0.0485
3702.00,0.0486
3701.50,0.0486
3701.00,0.0486
3700.50,0.0486
3700.00,0.0486
3699.50,0.0487
3699.00,0.0487
3698.50,0.0487
3698.00,0.0486
3697.50,0.0486
3697.00,0.0485
3696.50,0.0485
3696.00,0.0484
3695.50,0.0484
3695.00,0.0483
3694.50,0.0483
3694.00,0.0482
3693.50,0.0482
3693.00,0.0481
3692.50,0.0480
3692.00,0.0479
3691.50,0.0477
3691.00,0.0476
3690.50,0.0475
3690.00,0.0472
3689.50,0.0470
3689.00,0.0469
3688.50,0.0471
3688.00,0.0472
3687.50,0.0472
3687.00,0.0471
3686.50,0.0471
3686.00,0.0471
3685.50,0.0471
3685.00,0.0471
3684.50,0.0470
3684.00,0.0470
3683.50,0.0469
3683.00,0.0469
3682.50,0.0469
3682.00,0.0469
3681.50,0.0468
3681.00,0.0468
3680.50,0.0467
3680.00,0.0466
3679.50,0.0466
3679.00,0.0465
3678.50,0.0465
3678.00,0.0465
3677.50,0.0464
3677.00,0.0464
3676.50,0.0465
3676.00,0.0465
3675.50,0.0464
3675.00,0.0461
3674.50,0.0461
3674.00,0.0462
3673.50,0.0464
3673.00,0.0465
3672.50,0.0466
3672.00,0.0466
3671.50,0.0466
3671.00,0.0467
3670.50,0.0469
3670.00,0.0468
3669.50,0.0466
3669.00,0.0466
3668.50,0.0467
3668.00,0.0468
3667.50,0.0470
3667.00,0.0470
3666.50,0.0471
3666.00,0.0473
3665.50,0.0473
3665.00,0.0474
3664.50,0.0474
3664.00,0.0475
3663.50,0.0475
3663.00,0.0476
3662.50,0.0476
3662.00,0.0477
3661.50,0.0477
3661.00,0.0477
3660.50,0.0477
3660.00,0.0478
3659.50,0.0479
3659.00,0.0480
3658.50,0.0480
3658.00,0.0481
3657.50,0.0481
3657.00,0.0482
3656.50,0.0483
3656.00,0.0484
3655.50,0.0485
3655.00,0.0486
3654.50,0.0486
3654.00,0.0487
3653.50,0.0488
3653.00,0.0489
3652.50,0.0488
3652.00,0.0488
3651.50,0.0487
3651.00,0.0487
3650.50,0.0486
3650.00,0.0484
3649.50,0.0486
3649.00,0.0488
3648.50,0.0490
3648.00,0.0490
3647.50,0.0489
3647.00,0.0489
3646.50,0.0490
3646.00,0.0491
3645.50,0.0492
3645.00,0.0493
3644.50,0.0495
3644.00,0.0495
3643.50,0.0495
3643.00,0.0495
3642.50,0.0495
3642.00,0.0495
3641.50,0.0494
3641.00,0.0494
3640.50,0.0494
3640.00,0.0495
3639.50,0.0494
3639.00,0.0494
3638.50,0.0494
3638.00,0.0494
3637.50,0.0493
3637.00,0.0493
3636.50,0.0492
3636.00,0.0492
3635.50,0.0491
3635.00,0.0491
3634.50,0.0490
3634.00,0.0489
3633.50,0.0489
3633.00,0.0488
3632.50,0.0488
3632.00,0.0488
3631.50,0.0487
3631.00,0.0487
3630.50,0.0486
3630.00,0.0485
3629.50,0.0484
3629.00,0.0482
3628.50,0.0480
3628.00,0.0480
3627.50,0.0481
3627.00,0.0482
3626.50,0.0482
3626.00,0.0482
3625.50,0.0482
3625.00,0.0482
3624.50,0.0482
3624.00,0.0482
3623.50,0.0482
3623.00,0.0482
3622.50,0.0481
3622.00,0.0480
3621.50,0.0480
3621.00,0.0480
3620.50,0.0479
3620.00,0.0479
3619.50,0.0480
3619.00,0.0480
3618.50,0.0479
3618.00,0.0477
3617.50,0.0477
3617.00,0.0478
3616.50,0.0479
3616.00,0.0479
3615.50,0.0479
3615.00,0.0479
3614.50,0.0479
3614.00,0.0479
3613.50,0.0478
3613.00,0.0478
3612.50,0.0478
3612.00,0.0478
3611.50,0.0479
3611.00,0.0479
3610.50,0.0479
3610.00,0.0479
3609.50,0.0480
3609.00,0.0480
3608.50,0.0480
3608.00,0.0479
3607.50,0.0478
3607.00,0.0479
3606.50,0.0479
3606.00,0.0479
3605.50,0.0480
3605.00,0.0481
3604.50,0.0482
3604.00,0.0482
3603.50,0.0482
3603.00,0.0482
3602.50,0.0482
3602.00,0.0482
3601.50,0.0482
3601.00,0.0482
3600.50,0.0482
3600.00,0.0481
3599.50,0.0481
3599.00,0.0482
3598.50,0.0482
3598.00,0.0483
3597.50,0.0484
3597.00,0.0484
3596.50,0.0484
3596.00,0.0483
3595.50,0.0483
3595.00,0.0483
3594.50,0.0483
3594.00,0.0483
3593.50,0.0483
3593.00,0.0483
3592.50,0.0483
3592.00,0.0484
3591.50,0.0484
3591.00,0.0485
3590.50,0.0485
3590.00,0.0485
3589.50,0.0484
3589.00,0.0484
3588.50,0.0483
3588.00,0.0482
3587.50,0.0480
3587.00,0.0478
3586.50,0.0478
3586.00,0.0478
3585.50,0.0479
3585.00,0.0479
3584.50,0.0481
3584.00,0.0481
3583.50,0.0481
3583.00,0.0481
3582.50,0.0481
3582.00,0.0481
3581.50,0.0481
3581.00,0.0481
3580.50,0.0481
3580.00,0.0480
3579.50,0.0480
3579.00,0.0480
3578.50,0.0479
3578.00,0.0479
3577.50,0.0479
3577.00,0.0479
3576.50,0.0479
3576.00,0.0478
3575.50,0.0478
3575.00,0.0478
3574.50,0.0478
3574.00,0.0477
3573.50,0.0477
3573.00,0.0476
3572.50,0.0476
3572.00,0.0476
3571.50,0.0475
3571.00,0.0475
3570.50,0.0474
3570.00,0.0474
3569.50,0.0473
3569.00,0.0473
3568.50,0.0472
3568.00,0.0472
3567.50,0.0471
3567.00,0.0469
3566.50,0.0468
3566.00,0.0468
3565.50,0.0468
3565.00,0.0469
3564.50,0.0469
3564.00,0.0470
3563.50,0.0470
3563.00,0.0470
3562.50,0.0470
3562.00,0.0469
3561.50,0.0469
3561.00,0.0469
3560.50,0.0469
3560.00,0.0469
3559.50,0.0469
3559.00,0.0469
3558.50,0.0469
3558.00,0.0469
3557.50,0.0469
3557.00,0.0469
3556.50,0.0469
3556.00,0.0469
3555.50,0.0469
3555.00,0.0469
3554.50,0.0468
3554.00,0.0468
3553.50,0.0468
3553.00,0.0467
3552.50,0.0466
3552.00,0.0466
3551.50,0.0466
3551.00,0.0466
3550.50,0.0466
3550.00,0.0467
3549.50,0.0467
3549.00,0.0467
3548.50,0.0467
3548.00,0.0466
3547.50,0.0465
3547.00,0.0464
3546.50,0.0463
3546.00,0.0463
3545.50,0.0462
3545.00,0.0463
3544.50,0.0463
3544.00,0.0463
3543.50,0.0463
3543.00,0.0464
3542.50,0.0464
3542.00,0.0465
3541.50,0.0465
3541.00,0.0466
3540.50,0.0466
3540.00,0.0466
3539.50,0.0466
3539.00,0.0466
3538.50,0.0466
3538.00,0.0465
3537.50,0.0465
3537.00,0.0464
3536.50,0.0464
3536.00,0.0464
3535.50,0.0464
3535.00,0.0465
3534.50,0.0465
3534.00,0.0466
3533.50,0.0466
3533.00,0.0466
3532.50,0.0466
3532.00,0.0466
3531.50,0.0466
3531.00,0.0466
3530.50,0.0465
3530.00,0.0465
3529.50,0.0465
3529.00,0.0465
3528.50,0.0464
3528.00,0.0464
3527.50,0.0464
3527.00,0.0464
3526.50,0.0464
3526.00,0.0463
3525.50,0.0463
3525.00,0.0462
3524.50,0.0462
3524.00,0.0461
3523.50,0.0461
3523.00,0.0462
3522.50,0.0462
3522.00,0.0462
3521.50,0.0463
3521.00,0.0463
3520.50,0.0463
3520.00,0.0463
3519.50,0.0463
3519.00,0.0463
3518.50,0.0463
3518.00,0.0463
3517.50,0.0462
3517.00,0.0462
3516.50,0.0462
3516.00,0.0462
3515.50,0.0462
3515.00,0.0461
3514.50,0.0461
3514.00,0.0460
3513.50,0.0460
3513.00,0.0461
3512.50,0.0461
3512.00,0.0461
3511.50,0.0461
3511.00,0.0461
3510.50,0.0461
3510.00,0.0460
3509.50,0.0460
3509.00,0.0460
3508.50,0.0460
3508.00,0.0460
3507.50,0.0460
3507.00,0.0460
3506.50,0.0460
3506.00,0.0459
3505.50,0.0459
3505.00,0.0459
3504.50,0.0458
3504.00,0.0457
3503.50,0.0456
3503.00,0.0456
3502.50,0.0456
3502.00,0.0456
3501.50,0.0456
3501.00,0.0457
3500.50,0.0457
3500.00,0.0457
3499.50,0.0457
3499.00,0.0456
3498.50,0.0456
3498.00,0.0456
3497.50,0.0456
3497.00,0.0456
3496.50,0.0455
3496.00,0.0455
3495.50,0.0455
3495.00,0.0455
3494.50,0.0455
3494.00,0.0455
3493.50,0.0455
3493.00,0.0455
3492.50,0.0455
3492.00,0.0455
3491.50,0.0455
3491.00,0.0455
3490.50,0.0454
3490.00,0.0454
3489.50,0.0454
3489.00,0.0454
3488.50,0.0453
3488.00,0.0453
3487.50,0.0452
3487.00,0.0452
3486.50,0.0452
3486.00,0.0452
3485.50,0.0453
3485.00,0.0453
3484.50,0.0453
3484.00,0.0453
3483.50,0.0453
3483.00,0.0452
3482.50,0.0452
3482.00,0.0451
3481.50,0.0451
3481.00,0.0450
3480.50,0.0449
3480.00,0.0449
3479.50,0.0449
3479.00,0.0450
3478.50,0.0450
3478.00,0.0450
3477.50,0.0450
3477.00,0.0450
3476.50,0.0450
3476.00,0.0450
3475.50,0.0450
3475.00,0.0449
3474.50,0.0449
3474.00,0.0449
3473.50,0.0449
3473.00,0.0449
3472.50,0.0449
3472.00,0.0449
3471.50,0.0448
3471.00,0.0447
3470.50,0.0447
3470.00,0.0446
3469.50,0.0446
3469.00,0.0445
3468.50,0.0445
3468.00,0.0445
3467.50,0.0445
3467.00,0.0445
3466.50,0.0445
3466.00,0.0445
3465.50,0.0445
3465.00,0.0446
3464.50,0.0446
3464.00,0.0446
3463.50,0.0446
3463.00,0.0446
3462.50,0.0445
3462.00,0.0445
3461.50,0.0444
3461.00,0.0444
3460.50,0.0443
3460.00,0.0443
3459.50,0.0443
3459.00,0.0444
3458.50,0.0444
3458.00,0.0444
3457.50,0.0444
3457.00,0.0444
3456.50,0.0444
3456.00,0.0443
3455.50,0.0443
3455.00,0.0443
3454.50,0.0443
3454.00,0.0443
3453.50,0.0443
3453.00,0.0442
3452.50,0.0442
3452.00,0.0442
3451.50,0.0442
3451.00,0.0442
3450.50,0.0441
3450.00,0.0441
3449.50,0.0441
3449.00,0.0441
3448.50,0.0440
3448.00,0.0440
3447.50,0.0439
3447.00,0.0439
3446.50,0.0439
3446.00,0.0439
3445.50,0.0439
3445.00,0.0439
3444.50,0.0439
3444.00,0.0439
3443.50,0.0439
3443.00,0.0439
3442.50,0.0438
3442.00,0.0438
3441.50,0.0438
3441.00,0.0438
3440.50,0.0438
3440.00,0.0437
3439.50,0.0437
3439.00,0.0437
3438.50,0.0436
3438.00,0.0435
3437.50,0.0435
3437.00,0.0434
3436.50,0.0434
3436.00,0.0434
3435.50,0.0434
3435.00,0.0434
3434.50,0.0434
3434.00,0.0434
3433.50,0.0434
3433.00,0.0434
3432.50,0.0434
3432.00,0.0434
3431.50,0.0433
3431.00,0.0433
3430.50,0.0433
3430.00,0.0433
3429.50,0.0433
3429.00,0.0433
3428.50,0.0433
3428.00,0.0433
3427.50,0.0433
3427.00,0.0433
3426.50,0.0433
3426.00,0.0433
3425.50,0.0433
3425.00,0.0433
3424.50,0.0433
3424.00,0.0433
3423.50,0.0433
3423.00,0.0432
3422.50,0.0432
3422.00,0.0432
3421.50,0.0431
3421.00,0.0431
3420.50,0.0431
3420.00,0.0431
3419.50,0.0431
3419.00,0.0431
3418.50,0.0431
3418.00,0.0431
3417.50,0.0431
3417.00,0.0431
3416.50,0.0431
3416.00,0.0431
3415.50,0.0430
3415.00,0.0430
3414.50,0.0430
3414.00,0.0429
3413.50,0.0429
3413.00,0.0429
3412.50,0.0429
3412.00,0.0429
3411.50,0.0429
3411.00,0.0429
3410.50,0.0429
3410.00,0.0429
3409.50,0.0428
3409.00,0.0428
3408.50,0.0428
3408.00,0.0428
3407.50,0.0428
3407.00,0.0428
3406.50,0.0428
3406.00,0.0428
3405.50,0.0428
3405.00,0.0428
3404.50,0.0428
3404.00,0.0427
3403.50,0.0427
3403.00,0.0426
3402.50,0.0426
3402.00,0.0425
3401.50,0.0425
3401.00,0.0425
3400.50,0.0425
3400.00,0.0425
3399.50,0.0425
3399.00,0.0425
3398.50,0.0426
3398.00,0.0426
3397.50,0.0426
3397.00,0.0426
3396.50,0.0426
3396.00,0.0426
3395.50,0.0426
3395.00,0.0425
3394.50,0.0425
3394.00,0.0425
3393.50,0.0425
3393.00,0.0424
3392.50,0.0423
3392.00,0.0423
3391.50,0.0423
3391.00,0.0423
3390.50,0.0424
3390.00,0.0425
3389.50,0.0425
3389.00,0.0425
3388.50,0.0425
3388.00,0.0425
3387.50,0.0425
3387.00,0.0425
3386.50,0.0425
3386.00,0.0425
3385.50,0.0425
3385.00,0.0425
3384.50,0.0425
3384.00,0.0425
3383.50,0.0425
3383.00,0.0425
3382.50,0.0424
3382.00,0.0424
3381.50,0.0424
3381.00,0.0423
3380.50,0.0423
3380.00,0.0423
3379.50,0.0424
3379.00,0.0424
3378.50,0.0424
3378.00,0.0424
3377.50,0.0423
3377.00,0.0423
3376.50,0.0423
3376.00,0.0423
3375.50,0.0423
3375.00,0.0423
3374.50,0.0423
3374.00,0.0423
3373.50,0.0423
3373.00,0.0423
3372.50,0.0423
3372.00,0.0422
3371.50,0.0422
3371.00,0.0422
3370.50,0.0421
3370.00,0.0421
3369.50,0.0421
3369.00,0.0421
3368.50,0.0421
3368.00,0.0421
3367.50,0.0421
3367.00,0.0421
3366.50,0.0421
3366.00,0.0422
3365.50,0.0422
3365.00,0.0423
3364.50,0.0423
3364.00,0.0423
3363.50,0.0423
3363.00,0.0423
3362.50,0.0423
3362.00,0.0423
3361.50,0.0422
3361.00,0.0422
3360.50,0.0422
3360.00,0.0422
3359.50,0.0423
3359.00,0.0423
3358.50,0.0423
3358.00,0.0423
3357.50,0.0423
3357.00,0.0423
3356.50,0.0423
3356.00,0.0423
3355.50,0.0423
3355.00,0.0423
3354.50,0.0423
3354.00,0.0423
3353.50,0.0423
3353.00,0.0422
3352.50,0.0422
3352.00,0.0421
3351.50,0.0421
3351.00,0.0421
3350.50,0.0421
3350.00,0.0421
3349.50,0.0421
3349.00,0.0422
3348.50,0.0422
3348.00,0.0422
3347.50,0.0422
3347.00,0.0422
3346.50,0.0422
3346.00,0.0422
3345.50,0.0422
3345.00,0.0422
3344.50,0.0421
3344.00,0.0421
3343.50,0.0421
3343.00,0.0421
3342.50,0.0421
3342.00,0.0421
3341.50,0.0421
3341.00,0.0421
3340.50,0.0421
3340.00,0.0421
3339.50,0.0420
3339.00,0.0420
3338.50,0.0420
3338.00,0.0420
3337.50,0.0420
3337.00,0.0420
3336.50,0.0420
3336.00,0.0421
3335.50,0.0421
3335.00,0.0421
3334.50,0.0421
3334.00,0.0421
3333.50,0.0421
3333.00,0.0421
3332.50,0.0421
3332.00,0.0421
3331.50,0.0421
3331.00,0.0421
3330.50,0.0421
3330.00,0.0421
3329.50,0.0421
3329.00,0.0421
3328.50,0.0421
3328.00,0.0420
3327.50,0.0420
3327.00,0.0419
3326.50,0.0419
3326.00,0.0419
3325.50,0.0419
3325.00,0.0419
3324.50,0.0419
3324.00,0.0420
3323.50,0.0420
3323.00,0.0420
3322.50,0.0420
3322.00,0.0420
3321.50,0.0420
3321.00,0.0420
3320.50,0.0420
3320.00,0.0420
3319.50,0.0420
3319.00,0.0420
3318.50,0.0420
3318.00,0.0419
3317.50,0.0419
3317.00,0.0419
3316.50,0.0419
3316.00,0.0419
3315.50,0.0419
3315.00,0.0419
3314.50,0.0419
3314.00,0.0419
3313.50,0.0419
3313.00,0.0418
3312.50,0.0418
3312.00,0.0418
3311.50,0.0418
3311.00,0.0418
3310.50,0.0418
3310.00,0.0417
3309.50,0.0417
3309.00,0.0416
3308.50,0.0416
3308.00,0.0416
3307.50,0.0416
3307.00,0.0416
3306.50,0.0416
3306.00,0.0416
3305.50,0.0416
3305.00,0.0416
3304.50,0.0417
3304.00,0.0417
3303.50,0.0417
3303.00,0.0418
3302.50,0.0418
3302.00,0.0418
3301.50,0.0418
3301.00,0.0418
3300.50,0.0418
3300.00,0.0418
3299.50,0.0418
3299.00,0.0418
3298.50,0.0418
3298.00,0.0417
3297.50,0.0417
3297.00,0.0417
3296.50,0.0416
3296.00,0.0416
3295.50,0.0416
3295.00,0.0416
3294.50,0.0416
3294.00,0.0417
3293.50,0.0416
3293.00,0.0416
3292.50,0.0416
3292.00,0.0416
3291.50,0.0416
3291.00,0.0416
3290.50,0.0417
3290.00,0.0417
3289.50,0.0417
3289.00,0.0418
3288.50,0.0417
3288.00,0.0417
3287.50,0.0417
3287.00,0.0417
3286.50,0.0418
3286.00,0.0418
3285.50,0.0418
3285.00,0.0418
3284.50,0.0418
3284.00,0.0418
3283.50,0.0418
3283.00,0.0417
3282.50,0.0417
3282.00,0.0417
3281.50,0.0417
3281.00,0.0417
3280.50,0.0417
3280.00,0.0417
3279.50,0.0418
3279.00,0.0418
3278.50,0.0418
3278.00,0.0418
3277.50,0.0417
3277.00,0.0417
3276.50,0.0417
3276.00,0.0416
3275.50,0.0416
3275.00,0.0416
3274.50,0.0416
3274.00,0.0416
3273.50,0.0416
3273.00,0.0416
3272.50,0.0416
3272.00,0.0416
3271.50,0.0415
3271.00,0.0415
3270.50,0.0415
3270.00,0.0416
3269.50,0.0416
3269.00,0.0417
3268.50,0.0417
3268.00,0.0417
3267.50,0.0418
3267.00,0.0418
3266.50,0.0418
3266.00,0.0418
3265.50,0.0418
3265.00,0.0418
3264.50,0.0418
3264.00,0.0418
3263.50,0.0418
3263.00,0.0418
3262.50,0.0418
3262.00,0.0418
3261.50,0.0418
3261.00,0.0418
3260.50,0.0417
3260.00,0.0417
3259.50,0.0417
3259.00,0.0418
3258.50,0.0418
3258.00,0.0417
3257.50,0.0417
3257.00,0.0417
3256.50,0.0417
3256.00,0.0416
3255.50,0.0417
3255.00,0.0417
3254.50,0.0417
3254.00,0.0418
3253.50,0.0418
3253.00,0.0418
3252.50,0.0418
3252.00,0.0418
3251.50,0.0418
3251.00,0.0418
3250.50,0.0418
3250.00,0.0418
3249.50,0.0418
3249.00,0.0418
3248.50,0.0417
3248.00,0.0417
3247.50,0.0417
3247.00,0.0417
3246.50,0.0417
3246.00,0.0417
3245.50,0.0418
3245.00,0.0418
3244.50,0.0418
3244.00,0.0419
3243.50,0.0419
3243.00,0.0419
3242.50,0.0419
3242.00,0.0419
3241.50,0.0419
3241.00,0.0419
3240.50,0.0419
3240.00,0.0419
3239.50,0.0419
3239.00,0.0419
3238.50,0.0419
3238.00,0.0419
3237.50,0.0419
3237.00,0.0419
3236.50,0.0419
3236.00,0.0419
3235.50,0.0418
3235.00,0.0418
3234.50,0.0418
3234.00,0.0418
3233.50,0.0418
3233.00,0.0418
3232.50,0.0418
3232.00,0.0419
3231.50,0.0419
3231.00,0.0420
3230.50,0.0420
3230.00,0.0420
3229.50,0.0420
3229.00,0.0420
3228.50,0.0420
3228.00,0.0420
3227.50,0.0420
3227.00,0.0420
3226.50,0.0420
3226.00,0.0420
3225.50,0.0421
3225.00,0.0421
3224.50,0.0421
3224.00,0.0421
3223.50,0.0421
3223.00,0.0421
3222.50,0.0421
3222.00,0.0421
3221.50,0.0421
3221.00,0.0421
3220.50,0.0421
3220.00,0.0421
3219.50,0.0421
3219.00,0.0421
3218.50,0.0421
3218.00,0.0421
3217.50,0.0422
3217.00,0.0422
3216.50,0.0422
3216.00,0.0422
3215.50,0.0422
3215.00,0.0422
3214.50,0.0422
3214.00,0.0422
3213.50,0.0422
3213.00,0.0422
3212.50,0.0422
3212.00,0.0423
3211.50,0.0423
3211.00,0.0423
3210.50,0.0423
3210.00,0.0423
3209.50,0.0423
3209.00,0.0423
3208.50,0.0423
3208.00,0.0423
3207.50,0.0423
3207.00,0.0423
3206.50,0.0423
3206.00,0.0423
3205.50,0.0423
3205.00,0.0424
3204.50,0.0424
3204.00,0.0424
3203.50,0.0424
3203.00,0.0424
3202.50,0.0424
3202.00,0.0424
3201.50,0.0424
3201.00,0.0425
3200.50,0.0425
3200.00,0.0425
3199.50,0.0425
3199.00,0.0425
3198.50,0.0425
3198.00,0.0425
3197.50,0.0425
3197.00,0.0426
3196.50,0.0426
3196.00,0.0426
3195.50,0.0426
3195.00,0.0426
3194.50,0.0426
3194.00,0.0427
3193.50,0.0427
3193.00,0.0427
3192.50,0.0427
3192.00,0.0427
3191.50,0.0428
3191.00,0.0428
3190.50,0.0428
3190.00,0.0428
3189.50,0.0428
3189.00,0.0429
3188.50,0.0429
3188.00,0.0429
3187.50,0.0430
3187.00,0.0430
3186.50,0.0430
3186.00,0.0430
3185.50,0.0430
3185.00,0.0430
3184.50,0.0430
3184.00,0.0430
3183.50,0.0430
3183.00,0.0430
3182.50,0.0430
3182.00,0.0430
3181.50,0.0430
3181.00,0.0430
3180.50,0.0430
3180.00,0.0430
3179.50,0.0430
3179.00,0.0430
3178.50,0.0430
3178.00,0.0430
3177.50,0.0430
3177.00,0.0430
3176.50,0.0430
3176.00,0.0430
3175.50,0.0430
3175.00,0.0430
3174.50,0.0430
3174.00,0.0430
3173.50,0.0430
3173.00,0.0431
3172.50,0.0431
3172.00,0.0431
3171.50,0.0431
3171.00,0.0431
3170.50,0.0431
3170.00,0.0431
3169.50,0.0432
3169.00,0.0432
3168.50,0.0432
3168.00,0.0432
3167.50,0.0432
3167.00,0.0433
3166.50,0.0433
3166.00,0.0433
3165.50,0.0433
3165.00,0.0433
3164.50,0.0434
3164.00,0.0434
3163.50,0.0434
3163.00,0.0434
3162.50,0.0434
3162.00,0.0435
3161.50,0.0435
3161.00,0.0435
3160.50,0.0436
3160.00,0.0436
3159.50,0.0436
3159.00,0.0436
3158.50,0.0437
3158.00,0.0437
3157.50,0.0437
3157.00,0.0437
3156.50,0.0437
3156.00,0.0438
3155.50,0.0438
3155.00,0.0438
3154.50,0.0438
3154.00,0.0438
3153.50,0.0437
3153.00,0.0437
3152.50,0.0438
3152.00,0.0438
3151.50,0.0439
3151.00,0.0440
3150.50,0.0441
3150.00,0.0441
3149.50,0.0442
3149.00,0.0442
3148.50,0.0443
3148.00,0.0443
3147.50,0.0443
3147.00,0.0444
3146.50,0.0444
3146.00,0.0444
3145.50,0.0445
3145.00,0.0445
3144.50,0.0446
3144.00,0.0446
3143.50,0.0447
3143.00,0.0447
3142.50,0.0447
3142.00,0.0448
3141.50,0.0448
3141.00,0.0448
3140.50,0.0448
3140.00,0.0448
3139.50,0.0448
3139.00,0.0449
3138.50,0.0450
3138.00,0.0451
3137.50,0.0451
3137.00,0.0452
3136.50,0.0453
3136.00,0.0454
3135.50,0.0455
3135.00,0.0456
3134.50,0.0456
3134.00,0.0457
3133.50,0.0458
3133.00,0.0458
3132.50,0.0459
3132.00,0.0459
3131.50,0.0460
3131.00,0.0460
3130.50,0.0460
3130.00,0.0461
3129.50,0.0461
3129.00,0.0462
3128.50,0.0463
3128.00,0.0464
3127.50,0.0465
3127.00,0.0466
3126.50,0.0466
3126.00,0.0467
3125.50,0.0468
3125.00,0.0468
3124.50,0.0469
3124.00,0.0469
3123.50,0.0470
3123.00,0.0470
3122.50,0.0470
3122.00,0.0470
3121.50,0.0470
3121.00,0.0470
3120.50,0.0470
3120.00,0.0471
3119.50,0.0472
3119.00,0.0472
3118.50,0.0473
3118.00,0.0473
3117.50,0.0473
3117.00,0.0474
3116.50,0.0474
3116.00,0.0474
3115.50,0.0475
3115.00,0.0476
3114.50,0.0477
3114.00,0.0477
3113.50,0.0478
3113.00,0.0479
3112.50,0.0479
3112.00,0.0479
3111.50,0.0480
3111.00,0.0480
3110.50,0.0480
3110.00,0.0479
3109.50,0.0479
3109.00,0.0479
3108.50,0.0479
3108.00,0.0480
3107.50,0.0481
3107.00,0.0481
3106.50,0.0482
3106.00,0.0482
3105.50,0.0482
3105.00,0.0482
3104.50,0.0482
3104.00,0.0482
3103.50,0.0482
3103.00,0.0483
3102.50,0.0483
3102.00,0.0482
3101.50,0.0482
3101.00,0.0482
3100.50,0.0481
3100.00,0.0482
3099.50,0.0482
3099.00,0.0482
3098.50,0.0483
3098.00,0.0483
3097.50,0.0483
3097.00,0.0483
3096.50,0.0483
3096.00,0.0483
3095.50,0.0483
3095.00,0.0483
3094.50,0.0483
3094.00,0.0483
3093.50,0.0483
3093.00,0.0483
3092.50,0.0483
3092.00,0.0483
3091.50,0.0482
3091.00,0.0482
3090.50,0.0482
3090.00,0.0482
3089.50,0.0483
3089.00,0.0483
3088.50,0.0483
3088.00,0.0483
3087.50,0.0483
3087.00,0.0483
3086.50,0.0483
3086.00,0.0483
3085.50,0.0483
3085.00,0.0483
3084.50,0.0483
3084.00,0.0484
3083.50,0.0484
3083.00,0.0485
3082.50,0.0485
3082.00,0.0485
3081.50,0.0485
3081.00,0.0485
3080.50,0.0485
3080.00,0.0485
3079.50,0.0486
3079.00,0.0486
3078.50,0.0486
3078.00,0.0487
3077.50,0.0488
3077.00,0.0488
3076.50,0.0489
3076.00,0.0490
3075.50,0.0491
3075.00,0.0492
3074.50,0.0493
3074.00,0.0493
3073.50,0.0494
3073.00,0.0494
3072.50,0.0494
3072.00,0.0495
3071.50,0.0495
3071.00,0.0496
3070.50,0.0497
3070.00,0.0497
3069.50,0.0498
3069.00,0.0498
3068.50,0.0498
3068.00,0.0499
3067.50,0.0499
3067.00,0.0500
3066.50,0.0501
3066.00,0.0503
3065.50,0.0504
3065.00,0.0506
3064.50,0.0507
3064.00,0.0508
3063.50,0.0509
3063.00,0.0511
3062.50,0.0513
3062.00,0.0514
3061.50,0.0516
3061.00,0.0518
3060.50,0.0520
3060.00,0.0521
3059.50,0.0523
3059.00,0.0525
3058.50,0.0527
3058.00,0.0528
3057.50,0.0530
3057.00,0.0532
3056.50,0.0533
3056.00,0.0535
3055.50,0.0537
3055.00,0.0538
3054.50,0.0539
3054.00,0.0540
3053.50,0.0541
3053.00,0.0542
3052.50,0.0541
3052.00,0.0541
3051.50,0.0540
3051.00,0.0539
3050.50,0.0537
3050.00,0.0536
3049.50,0.0535
3049.00,0.0533
3048.50,0.0531
3048.00,0.0529
3047.50,0.0527
3047.00,0.0524
3046.50,0.0522
3046.00,0.0520
3045.50,0.0518
3045.00,0.0517
3044.50,0.0515
3044.00,0.0514
3043.50,0.0513
3043.00,0.0512
3042.50,0.0511
3042.00,0.0510
3041.50,0.0510
3041.00,0.0510
3040.50,0.0509
3040.00,0.0509
3039.50,0.0509
3039.00,0.0509
3038.50,0.0509
3038.00,0.0509
3037.50,0.0509
3037.00,0.0508
3036.50,0.0508
3036.00,0.0507
3035.50,0.0507
3035.00,0.0506
3034.50,0.0506
3034.00,0.0506
3033.50,0.0507
3033.00,0.0507
3032.50,0.0507
3032.00,0.0508
3031.50,0.0508
3031.00,0.0508
3030.50,0.0509
3030.00,0.0509
3029.50,0.0510
3029.00,0.0511
3028.50,0.0511
3028.00,0.0512
3027.50,0.0513
3027.00,0.0513
3026.50,0.0514
3026.00,0.0514
3025.50,0.0514
3025.00,0.0515
3024.50,0.0516
3024.00,0.0518
3023.50,0.0519
3023.00,0.0521
3022.50,0.0522
3022.00,0.0523
3021.50,0.0525
3021.00,0.0526
3020.50,0.0527
3020.00,0.0528
3019.50,0.0530
3019.00,0.0532
3018.50,0.0533
3018.00,0.0534
3017.50,0.0536
3017.00,0.0537
3016.50,0.0538
3016.00,0.0539
3015.50,0.0540
3015.00,0.0541
3014.50,0.0542
3014.00,0.0543
3013.50,0.0545
3013.00,0.0546
3012.50,0.0547
3012.00,0.0548
3011.50,0.0549
3011.00,0.0550
3010.50,0.0552
3010.00,0.0554
3009.50,0.0556
3009.00,0.0558
3008.50,0.0559
3008.00,0.0561
3007.50,0.0563
3007.00,0.0565
3006.50,0.0568
3006.00,0.0570
3005.50,0.0572
3005.00,0.0574
3004.50,0.0577
3004.00,0.0580
3003.50,0.0583
3003.00,0.0586
3002.50,0.0590
3002.00,0.0593
3001.50,0.0597
3001.00,0.0601
3000.50,0.0605
3000.00,0.0609
2999.50,0.0614
2999.00,0.0618
2998.50,0.0623
2998.00,0.0628
2997.50,0.0634
2997.00,0.0640
2996.50,0.0647
2996.00,0.0654
2995.50,0.0661
2995.00,0.0668
2994.50,0.0675
2994.00,0.0683
2993.50,0.0691
2993.00,0.0700
2992.50,0.0710
2992.00,0.0720
2991.50,0.0731
2991.00,0.0743
2990.50,0.0755
2990.00,0.0768
2989.50,0.0781
2989.00,0.0795
2988.50,0.0811
2988.00,0.0827
2987.50,0.0844
2987.00,0.0863
2986.50,0.0882
2986.00,0.0903
2985.50,0.0925
2985.00,0.0949
2984.50,0.0974
2984.00,0.1001
2983.50,0.1029
2983.00,0.1059
2982.50,0.1092
2982.00,0.1127
2981.50,0.1165
2981.00,0.1205
2980.50,0.1249
2980.00,0.1296
2979.50,0.1346
2979.00,0.1400
2978.50,0.1458
2978.00,0.1521
2977.50,0.1589
2977.00,0.1661
2976.50,0.1738
2976.00,0.1821
2975.50,0.1910
2975.00,0.2004
2974.50,0.2106
2974.00,0.2215
2973.50,0.2331
2973.00,0.2453
2972.50,0.2583
2972.00,0.2719
2971.50,0.2862
2971.00,0.3011
2970.50,0.3166
2970.00,0.3326
2969.50,0.3490
2969.00,0.3656
2968.50,0.3823
2968.00,0.3990
2967.50,0.4152
2967.00,0.4309
2966.50,0.4458
2966.00,0.4595
2965.50,0.4717
2965.00,0.4820
2964.50,0.4903
2964.00,0.4962
2963.50,0.4996
2963.00,0.5003
2962.50,0.4983
2962.00,0.4937
2961.50,0.4864
2961.00,0.4767
2960.50,0.4648
2960.00,0.4511
2959.50,0.4358
2959.00,0.4194
2958.50,0.4022
2958.00,0.3845
2957.50,0.3667
2957.00,0.3491
2956.50,0.3318
2956.00,0.3150
2955.50,0.2989
2955.00,0.2835
2954.50,0.2689
2954.00,0.2552
2953.50,0.2423
2953.00,0.2304
2952.50,0.2193
2952.00,0.2091
2951.50,0.1997
2951.00,0.1910
2950.50,0.1829
2950.00,0.1753
2949.50,0.1683
2949.00,0.1617
2948.50,0.1556
2948.00,0.1499
2947.50,0.1446
2947.00,0.1397
2946.50,0.1351
2946.00,0.1309
2945.50,0.1269
2945.00,0.1232
2944.50,0.1197
2944.00,0.1165
2943.50,0.1136
2943.00,0.1108
2942.50,0.1083
2942.00,0.1059
2941.50,0.1037
2941.00,0.1016
2940.50,0.0996
2940.00,0.0977
2939.50,0.0960
2939.00,0.0944
2938.50,0.0928
2938.00,0.0914
2937.50,0.0900
2937.00,0.0887
2936.50,0.0875
2936.00,0.0863
2935.50,0.0852
2935.00,0.0842
2934.50,0.0832
2934.00,0.0824
2933.50,0.0815
2933.00,0.0808
2932.50,0.0800
2932.00,0.0793
2931.50,0.0786
2931.00,0.0779
2930.50,0.0773
2930.00,0.0768
2929.50,0.0763
2929.00,0.0759
2928.50,0.0756
2928.00,0.0753
2927.50,0.0750
2927.00,0.0747
2926.50,0.0745
2926.00,0.0742
2925.50,0.0741
2925.00,0.0739
2924.50,0.0738
2924.00,0.0738
2923.50,0.0738
2923.00,0.0738
2922.50,0.0738
2922.00,0.0739
2921.50,0.0741
2921.00,0.0743
2920.50,0.0745
2920.00,0.0748
2919.50,0.0751
2919.00,0.0755
2918.50,0.0759
2918.00,0.0764
2917.50,0.0770
2917.00,0.0777
2916.50,0.0785
2916.00,0.0793
2915.50,0.0802
2915.00,0.0812
2914.50,0.0823
2914.00,0.0835
2913.50,0.0848
2913.00,0.0862
2912.50,0.0877
2912.00,0.0893
2911.50,0.0909
2911.00,0.0926
2910.50,0.0943
2910.00,0.0961
2909.50,0.0978
2909.00,0.0995
2908.50,0.1011
2908.00,0.1026
2907.50,0.1040
2907.00,0.1052
2906.50,0.1062
2906.00,0.1070
2905.50,0.1075
2905.00,0.1077
2904.50,0.1077
2904.00,0.1074
2903.50,0.1069
2903.00,0.1062
2902.50,0.1052
2902.00,0.1041
2901.50,0.1028
2901.00,0.1013
2900.50,0.0997
2900.00,0.0981
2899.50,0.0963
2899.00,0.0946
2898.50,0.0928
2898.00,0.0911
2897.50,0.0893
2897.00,0.0876
2896.50,0.0859
2896.00,0.0843
2895.50,0.0828
2895.00,0.0813
2894.50,0.0799
2894.00,0.0786
2893.50,0.0773
2893.00,0.0761
2892.50,0.0750
2892.00,0.0739
2891.50,0.0729
2891.00,0.0719
2890.50,0.0710
2890.00,0.0701
2889.50,0.0693
2889.00,0.0685
2888.50,0.0677
2888.00,0.0670
2887.50,0.0664
2887.00,0.0658
2886.50,0.0652
2886.00,0.0646
2885.50,0.0641
2885.00,0.0635
2884.50,0.0631
2884.00,0.0626
2883.50,0.0621
2883.00,0.0617
2882.50,0.0613
2882.00,0.0609
2881.50,0.0605
2881.00,0.0602
2880.50,0.0598
2880.00,0.0595
2879.50,0.0592
2879.00,0.0589
2878.50,0.0586
2878.00,0.0583
2877.50,0.0580
2877.00,0.0578
2876.50,0.0575
2876.00,0.0572
2875.50,0.0569
2875.00,0.0566
2874.50,0.0564
2874.00,0.0561
2873.50,0.0559
2873.00,0.0557
2872.50,0.0555
2872.00,0.0553
2871.50,0.0552
2871.00,0.0550
2870.50,0.0548
2870.00,0.0546
2869.50,0.0545
2869.00,0.0543
2868.50,0.0541
2868.00,0.0540
2867.50,0.0538
2867.00,0.0537
2866.50,0.0535
2866.00,0.0534
2865.50,0.0533
2865.00,0.0531
2864.50,0.0530
2864.00,0.0529
2863.50,0.0528
2863.00,0.0527
2862.50,0.0526
2862.00,0.0525
2861.50,0.0524
2861.00,0.0523
2860.50,0.0522
2860.00,0.0521
2859.50,0.0521
2859.00,0.0520
2858.50,0.0520
2858.00,0.0520
2857.50,0.0519
2857.00,0.0519
2856.50,0.0519
2856.00,0.0518
2855.50,0.0518
2855.00,0.0518
2854.50,0.0518
2854.00,0.0517
2853.50,0.0517
2853.00,0.0517
2852.50,0.0516
2852.00,0.0516
2851.50,0.0516
2851.00,0.0515
2850.50,0.0515
2850.00,0.0515
2849.50,0.0514
2849.00,0.0513
2848.50,0.0513
2848.00,0.0512
2847.50,0.0512
2847.00,0.0511
2846.50,0.0511
2846.00,0.0511
2845.50,0.0510
2845.00,0.0510
2844.50,0.0509
2844.00,0.0509
2843.50,0.0509
2843.00,0.0508
2842.50,0.0508
2842.00,0.0507
2841.50,0.0507
2841.00,0.0506
2840.50,0.0505
2840.00,0.0504
2839.50,0.0504
2839.00,0.0503
2838.50,0.0503
2838.00,0.0502
2837.50,0.0502
2837.00,0.0502
2836.50,0.0502
2836.00,0.0501
2835.50,0.0500
2835.00,0.0500
2834.50,0.0499
2834.00,0.0499
2833.50,0.0498
2833.00,0.0497
2832.50,0.0497
2832.00,0.0496
2831.50,0.0496
2831.00,0.0495
2830.50,0.0495
2830.00,0.0494
2829.50,0.0494
2829.00,0.0494
2828.50,0.0493
2828.00,0.0493
2827.50,0.0493
2827.00,0.0492
2826.50,0.0492
2826.00,0.0492
2825.50,0.0492
2825.00,0.0491
2824.50,0.0491
2824.00,0.0491
2823.50,0.0491
2823.00,0.0491
2822.50,0.0492
2822.00,0.0492
2821.50,0.0492
2821.00,0.0492
2820.50,0.0492
2820.00,0.0493
2819.50,0.0493
2819.00,0.0493
2818.50,0.0494
2818.00,0.0494
2817.50,0.0494
2817.00,0.0494
2816.50,0.0495
2816.00,0.0495
2815.50,0.0495
2815.00,0.0495
2814.50,0.0496
2814.00,0.0496
2813.50,0.0496
2813.00,0.0496
2812.50,0.0496
2812.00,0.0496
2811.50,0.0496
2811.00,0.0496
2810.50,0.0496
2810.00,0.0496
2809.50,0.0496
2809.00,0.0496
2808.50,0.0496
2808.00,0.0496
2807.50,0.0495
2807.00,0.0495
2806.50,0.0495
2806.00,0.0495
2805.50,0.0495
2805.00,0.0494
2804.50,0.0494
2804.00,0.0494
2803.50,0.0494
2803.00,0.0494
2802.50,0.0494
2802.00,0.0493
2801.50,0.0493
2801.00,0.0493
2800.50,0.0492
2800.00,0.0492
2799.50,0.0491
2799.00,0.0490
2798.50,0.0490
2798.00,0.0490
2797.50,0.0490
2797.00,0.0490
2796.50,0.0489
2796.00,0.0489
2795.50,0.0488
2795.00,0.0488
2794.50,0.0487
2794.00,0.0486
2793.50,0.0486
2793.00,0.0484
2792.50,0.0483
2792.00,0.0482
2791.50,0.0481
2791.00,0.0479
2790.50,0.0478
2790.00,0.0476
2789.50,0.0474
2789.00,0.0473
2788.50,0.0471
2788.00,0.0470
2787.50,0.0468
2787.00,0.0466
2786.50,0.0465
2786.00,0.0463
2785.50,0.0461
2785.00,0.0459
2784.50,0.0457
2784.00,0.0455
2783.50,0.0453
2783.00,0.0451
2782.50,0.0449
2782.00,0.0448
2781.50,0.0446
2781.00,0.0444
2780.50,0.0442
2780.00,0.0441
2779.50,0.0439
2779.00,0.0438
2778.50,0.0436
2778.00,0.0435
2777.50,0.0433
2777.00,0.0432
2776.50,0.0430
2776.00,0.0429
2775.50,0.0427
2775.00,0.0426
2774.50,0.0425
2774.00,0.0424
2773.50,0.0424
2773.00,0.0423
2772.50,0.0422
2772.00,0.0421
2771.50,0.0420
2771.00,0.0419
2770.50,0.0418
2770.00,0.0418
2769.50,0.0417
2769.00,0.0416
2768.50,0.0415
2768.00,0.0415
2767.50,0.0414
2767.00,0.0413
2766.50,0.0412
2766.00,0.0412
2765.50,0.0411
2765.00,0.0411
2764.50,0.0410
2764.00,0.0410
2763.50,0.0409
2763.00,0.0409
2762.50,0.0408
2762.00,0.0408
2761.50,0.0407
2761.00,0.0407
2760.50,0.0406
2760.00,0.0406
2759.50,0.0405
2759.00,0.0405
2758.50,0.0405
2758.00,0.0404
2757.50,0.0404
2757.00,0.0404
2756.50,0.0403
2756.00,0.0403
2755.50,0.0403
2755.00,0.0402
2754.50,0.0402
2754.00,0.0402
2753.50,0.0402
2753.00,0.0401
2752.50,0.0401
2752.00,0.0401
2751.50,0.0400
2751.00,0.0400
2750.50,0.0399
2750.00,0.0399
2749.50,0.0399
2749.00,0.0398
2748.50,0.0398
2748.00,0.0398
2747.50,0.0397
2747.00,0.0397
2746.50,0.0397
2746.00,0.0397
2745.50,0.0397
2745.00,0.0397
2744.50,0.0397
2744.00,0.0397
2743.50,0.0396
2743.00,0.0396
2742.50,0.0396
2742.00,0.0396
2741.50,0.0395
2741.00,0.0395
2740.50,0.0395
2740.00,0.0395
2739.50,0.0395
2739.00,0.0394
2738.50,0.0394
2738.00,0.0394
2737.50,0.0393
2737.00,0.0393
2736.50,0.0393
2736.00,0.0393
2735.50,0.0393
2735.00,0.0393
2734.50,0.0393
2734.00,0.0393
2733.50,0.0393
2733.00,0.0393
2732.50,0.0393
2732.00,0.0393
2731.50,0.0393
2731.00,0.0393
2730.50,0.0392
2730.00,0.0392
2729.50,0.0392
2729.00,0.0392
2728.50,0.0392
2728.00,0.0392
2727.50,0.0391
2727.00,0.0391
2726.50,0.0390
2726.00,0.0390
2725.50,0.0391
2725.00,0.0391
2724.50,0.0391
2724.00,0.0391
2723.50,0.0391
2723.00,0.0391
2722.50,0.0391
2722.00,0.0391
2721.50,0.0391
2721.00,0.0391
2720.50,0.0391
2720.00,0.0391
2719.50,0.0391
2719.00,0.0391
2718.50,0.0391
2718.00,0.0391
2717.50,0.0391
2717.00,0.0391
2716.50,0.0391
2716.00,0.0391
2715.50,0.0391
2715.00,0.0391
2714.50,0.0391
2714.00,0.0391
2713.50,0.0391
2713.00,0.0391
2712.50,0.0391
2712.00,0.0390
2711.50,0.0390
2711.00,0.0390
2710.50,0.0390
2710.00,0.0390
2709.50,0.0390
2709.00,0.0390
2708.50,0.0390
2708.00,0.0390
2707.50,0.0390
2707.00,0.0390
2706.50,0.0390
2706.00,0.0390
2705.50,0.0390
2705.00,0.0390
2704.50,0.0390
2704.00,0.0390
2703.50,0.0390
2703.00,0.0390
2702.50,0.0390
2702.00,0.0390
2701.50,0.0390
2701.00,0.0390
2700.50,0.0390
2700.00,0.0389
2699.50,0.0389
2699.00,0.0389
2698.50,0.0389
2698.00,0.0389
2697.50,0.0389
2697.00,0.0389
2696.50,0.0389
2696.00,0.0389
2695.50,0.0389
2695.00,0.0389
2694.50,0.0389
2694.00,0.0389
2693.50,0.0389
2693.00,0.0389
2692.50,0.0389
2692.00,0.0389
2691.50,0.0389
2691.00,0.0388
2690.50,0.0389
2690.00,0.0389
2689.50,0.0389
2689.00,0.0389
2688.50,0.0388
2688.00,0.0388
2687.50,0.0389
2687.00,0.0389
2686.50,0.0389
2686.00,0.0389
2685.50,0.0389
2685.00,0.0389
2684.50,0.0389
2684.00,0.0389
2683.50,0.0389
2683.00,0.0389
2682.50,0.0389
2682.00,0.0389
2681.50,0.0389
2681.00,0.0389
2680.50,0.0390
2680.00,0.0390
2679.50,0.0390
2679.00,0.0391
2678.50,0.0391
2678.00,0.0391
2677.50,0.0392
2677.00,0.0392
2676.50,0.0392
2676.00,0.0393
2675.50,0.0393
2675.00,0.0394
2674.50,0.0394
2674.00,0.0394
2673.50,0.0395
2673.00,0.0395
2672.50,0.0396
2672.00,0.0396
2671.50,0.0397
2671.00,0.0397
2670.50,0.0397
2670.00,0.0398
2669.50,0.0398
2669.00,0.0399
2668.50,0.0399
2668.00,0.0399
2667.50,0.0399
2667.00,0.0400
2666.50,0.0400
2666.00,0.0400
2665.50,0.0400
2665.00,0.0401
2664.50,0.0401
2664.00,0.0401
2663.50,0.0401
2663.00,0.0401
2662.50,0.0401
2662.00,0.0401
2661.50,0.0401
2661.00,0.0401
2660.50,0.0401
2660.00,0.0400
2659.50,0.0400
2659.00,0.0400
2658.50,0.0400
2658.00,0.0400
2657.50,0.0399
2657.00,0.0399
2656.50,0.0398
2656.00,0.0398
2655.50,0.0398
2655.00,0.0397
2654.50,0.0397
2654.00,0.0396
2653.50,0.0396
2653.00,0.0395
2652.50,0.0395
2652.00,0.0394
2651.50,0.0394
2651.00,0.0393
2650.50,0.0393
2650.00,0.0392
2649.50,0.0392
2649.00,0.0391
2648.50,0.0391
2648.00,0.0390
2647.50,0.0390
2647.00,0.0389
2646.50,0.0389
2646.00,0.0388
2645.50,0.0388
2645.00,0.0388
2644.50,0.0387
2644.00,0.0387
2643.50,0.0386
2643.00,0.0386
2642.50,0.0386
2642.00,0.0385
2641.50,0.0385
2641.00,0.0384
2640.50,0.0384
2640.00,0.0384
2639.50,0.0383
2639.00,0.0383
2638.50,0.0383
2638.00,0.0382
2637.50,0.0382
2637.00,0.0382
2636.50,0.0382
2636.00,0.0381
2635.50,0.0381
2635.00,0.0381
2634.50,0.0380
2634.00,0.0380
2633.50,0.0380
2633.00,0.0380
2632.50,0.0380
2632.00,0.0380
2631.50,0.0380
2631.00,0.0379
2630.50,0.0379
2630.00,0.0379
2629.50,0.0379
2629.00,0.0378
2628.50,0.0378
2628.00,0.0378
2627.50,0.0378
2627.00,0.0377
2626.50,0.0377
2626.00,0.0377
2625.50,0.0377
2625.00,0.0377
2624.50,0.0377
2624.00,0.0377
2623.50,0.0377
2623.00,0.0377
2622.50,0.0376
2622.00,0.0376
2621.50,0.0376
2621.00,0.0376
2620.50,0.0376
2620.00,0.0376
2619.50,0.0376
2619.00,0.0376
2618.50,0.0376
2618.00,0.0376
2617.50,0.0376
2617.00,0.0376
2616.50,0.0376
2616.00,0.0376
2615.50,0.0376
2615.00,0.0375
2614.50,0.0375
2614.00,0.0375
2613.50,0.0375
2613.00,0.0375
2612.50,0.0375
2612.00,0.0375
2611.50,0.0375
2611.00,0.0375
2610.50,0.0375
2610.00,0.0375
2609.50,0.0375
2609.00,0.0374
2608.50,0.0374
2608.00,0.0374
2607.50,0.0374
2607.00,0.0374
2606.50,0.0374
2606.00,0.0374
2605.50,0.0374
2605.00,0.0374
2604.50,0.0374
2604.00,0.0374
2603.50,0.0373
2603.00,0.0373
2602.50,0.0373
2602.00,0.0373
2601.50,0.0373
2601.00,0.0373
2600.50,0.0373
2600.00,0.0373
2599.50,0.0373
2599.00,0.0373
2598.50,0.0373
2598.00,0.0373
2597.50,0.0373
2597.00,0.0373
2596.50,0.0372
2596.00,0.0372
2595.50,0.0372
2595.00,0.0372
2594.50,0.0372
2594.00,0.0372
2593.50,0.0372
2593.00,0.0372
2592.50,0.0372
2592.00,0.0372
2591.50,0.0372
2591.00,0.0372
2590.50,0.0372
2590.00,0.0372
2589.50,0.0372
2589.00,0.0372
2588.50,0.0372
2588.00,0.0372
2587.50,0.0372
2587.00,0.0372
2586.50,0.0372
2586.00,0.0372
2585.50,0.0372
2585.00,0.0372
2584.50,0.0372
2584.00,0.0372
2583.50,0.0372
2583.00,0.0372
2582.50,0.0372
2582.00,0.0372
2581.50,0.0372
2581.00,0.0371
2580.50,0.0371
2580.00,0.0371
2579.50,0.0371
2579.00,0.0371
2578.50,0.0371
2578.00,0.0371
2577.50,0.0371
2577.00,0.0371
2576.50,0.0371
2576.00,0.0371
2575.50,0.0371
2575.00,0.0371
2574.50,0.0371
2574.00,0.0371
2573.50,0.0371
2573.00,0.0371
2572.50,0.0371
2572.00,0.0370
2571.50,0.0370
2571.00,0.0370
2570.50,0.0370
2570.00,0.0370
2569.50,0.0370
2569.00,0.0370
2568.50,0.0370
2568.00,0.0370
2567.50,0.0370
2567.00,0.0370
2566.50,0.0370
2566.00,0.0370
2565.50,0.0370
2565.00,0.0370
2564.50,0.0370
2564.00,0.0370
2563.50,0.0370
2563.00,0.0370
2562.50,0.0370
2562.00,0.0370
2561.50,0.0370
2561.00,0.0370
2560.50,0.0370
2560.00,0.0370
2559.50,0.0370
2559.00,0.0370
2558.50,0.0370
2558.00,0.0370
2557.50,0.0370
2557.00,0.0370
2556.50,0.0370
2556.00,0.0370
2555.50,0.0370
2555.00,0.0370
2554.50,0.0370
2554.00,0.0370
2553.50,0.0370
2553.00,0.0370
2552.50,0.0369
2552.00,0.0369
2551.50,0.0369
2551.00,0.0369
2550.50,0.0369
2550.00,0.0369
2549.50,0.0369
2549.00,0.0369
2548.50,0.0369
2548.00,0.0369
2547.50,0.0369
2547.00,0.0369
2546.50,0.0369
2546.00,0.0369
2545.50,0.0368
2545.00,0.0368
2544.50,0.0368
2544.00,0.0368
2543.50,0.0368
2543.00,0.0368
2542.50,0.0368
2542.00,0.0368
2541.50,0.0368
2541.00,0.0368
2540.50,0.0367
2540.00,0.0367
2539.50,0.0367
2539.00,0.0367
2538.50,0.0367
2538.00,0.0367
2537.50,0.0367
2537.00,0.0367
2536.50,0.0367
2536.00,0.0367
2535.50,0.0367
2535.00,0.0366
2534.50,0.0366
2534.00,0.0366
2533.50,0.0366
2533.00,0.0366
2532.50,0.0366
2532.00,0.0366
2531.50,0.0366
2531.00,0.0366
2530.50,0.0366
2530.00,0.0366
2529.50,0.0366
2529.00,0.0366
2528.50,0.0366
2528.00,0.0366
2527.50,0.0366
2527.00,0.0366
2526.50,0.0367
2526.00,0.0367
2525.50,0.0367
2525.00,0.0367
2524.50,0.0367
2524.00,0.0367
2523.50,0.0367
2523.00,0.0367
2522.50,0.0367
2522.00,0.0367
2521.50,0.0367
2521.00,0.0368
2520.50,0.0368
2520.00,0.0368
2519.50,0.0368
2519.00,0.0368
2518.50,0.0368
2518.00,0.0368
2517.50,0.0368
2517.00,0.0368
2516.50,0.0369
2516.00,0.0369
2515.50,0.0369
2515.00,0.0369
2514.50,0.0369
2514.00,0.0369
2513.50,0.0370
2513.00,0.0370
2512.50,0.0370
2512.00,0.0371
2511.50,0.0371
2511.00,0.0372
2510.50,0.0372
2510.00,0.0373
2509.50,0.0373
2509.00,0.0374
2508.50,0.0375
2508.00,0.0376
2507.50,0.0376
2507.00,0.0377
2506.50,0.0378
2506.00,0.0379
2505.50,0.0381
2505.00,0.0382
2504.50,0.0383
2504.00,0.0384
2503.50,0.0386
2503.00,0.0387
2502.50,0.0388
2502.00,0.0389
2501.50,0.0390
2501.00,0.0391
2500.50,0.0392
2500.00,0.0393
2499.50,0.0393
2499.00,0.0393
2498.50,0.0393
2498.00,0.0393
2497.50,0.0392
2497.00,0.0392
2496.50,0.0391
2496.00,0.0391
2495.50,0.0390
2495.00,0.0389
2494.50,0.0388
2494.00,0.0388
2493.50,0.0387
2493.00,0.0386
2492.50,0.0385
2492.00,0.0384
2491.50,0.0384
2491.00,0.0383
2490.50,0.0382
2490.00,0.0381
2489.50,0.0380
2489.00,0.0380
2488.50,0.0379
2488.00,0.0378
2487.50,0.0378
2487.00,0.0377
2486.50,0.0377
2486.00,0.0376
2485.50,0.0376
2485.00,0.0375
2484.50,0.0375
2484.00,0.0374
2483.50,0.0374
2483.00,0.0373
2482.50,0.0373
2482.00,0.0373
2481.50,0.0372
2481.00,0.0372
2480.50,0.0372
2480.00,0.0372
2479.50,0.0371
2479.00,0.0371
2478.50,0.0371
2478.00,0.0371
2477.50,0.0371
2477.00,0.0371
2476.50,0.0370
2476.00,0.0370
2475.50,0.0370
2475.00,0.0370
2474.50,0.0370
2474.00,0.0370
2473.50,0.0369
2473.00,0.0369
2472.50,0.0369
2472.00,0.0369
2471.50,0.0369
2471.00,0.0369
2470.50,0.0369
2470.00,0.0369
2469.50,0.0369
2469.00,0.0369
2468.50,0.0369
2468.00,0.0369
2467.50,0.0369
2467.00,0.0369
2466.50,0.0369
2466.00,0.0369
2465.50,0.0369
2465.00,0.0369
2464.50,0.0369
2464.00,0.0368
2463.50,0.0368
2463.00,0.0368
2462.50,0.0368
2462.00,0.0368
2461.50,0.0368
2461.00,0.0368
2460.50,0.0368
2460.00,0.0368
2459.50,0.0368
2459.00,0.0367
2458.50,0.0367
2458.00,0.0367
2457.50,0.0367
2457.00,0.0367
2456.50,0.0367
2456.00,0.0367
2455.50,0.0367
2455.00,0.0367
2454.50,0.0367
2454.00,0.0367
2453.50,0.0367
2453.00,0.0367
2452.50,0.0367
2452.00,0.0366
2451.50,0.0366
2451.00,0.0366
2450.50,0.0366
2450.00,0.0366
2449.50,0.0366
2449.00,0.0366
2448.50,0.0366
2448.00,0.0366
2447.50,0.0366
2447.00,0.0366
2446.50,0.0366
2446.00,0.0366
2445.50,0.0366
2445.00,0.0366
2444.50,0.0366
2444.00,0.0366
2443.50,0.0366
2443.00,0.0366
2442.50,0.0366
2442.00,0.0366
2441.50,0.0366
2441.00,0.0366
2440.50,0.0366
2440.00,0.0366
2439.50,0.0366
2439.00,0.0366
2438.50,0.0366
2438.00,0.0366
2437.50,0.0366
2437.00,0.0366
2436.50,0.0366
2436.00,0.0366
2435.50,0.0366
2435.00,0.0365
2434.50,0.0365
2434.00,0.0365
2433.50,0.0365
2433.00,0.0365
2432.50,0.0365
2432.00,0.0365
2431.50,0.0365
2431.00,0.0365
2430.50,0.0365
2430.00,0.0365
2429.50,0.0365
2429.00,0.0365
2428.50,0.0365
2428.00,0.0365
2427.50,0.0365
2427.00,0.0364
2426.50,0.0364
2426.00,0.0364
2425.50,0.0364
2425.00,0.0364
2424.50,0.0364
2424.00,0.0364
2423.50,0.0364
2423.00,0.0364
2422.50,0.0364
2422.00,0.0364
2421.50,0.0364
2421.00,0.0364
2420.50,0.0364
2420.00,0.0364
2419.50,0.0364
2419.00,0.0364
2418.50,0.0364
2418.00,0.0364
2417.50,0.0364
2417.00,0.0364
2416.50,0.0364
2416.00,0.0364
2415.50,0.0364
2415.00,0.0364
2414.50,0.0364
2414.00,0.0364
2413.50,0.0364
2413.00,0.0364
2412.50,0.0364
2412.00,0.0364
2411.50,0.0364
2411.00,0.0364
2410.50,0.0364
2410.00,0.0364
2409.50,0.0364
2409.00,0.0364
2408.50,0.0364
2408.00,0.0364
2407.50,0.0364
2407.00,0.0364
2406.50,0.0364
2406.00,0.0364
2405.50,0.0364
2405.00,0.0364
2404.50,0.0364
2404.00,0.0364
2403.50,0.0364
2403.00,0.0364
2402.50,0.0364
2402.00,0.0364
2401.50,0.0363
2401.00,0.0363
2400.50,0.0363
2400.00,0.0363
2399.50,0.0363
2399.00,0.0363
2398.50,0.0363
2398.00,0.0363
2397.50,0.0363
2397.00,0.0363
2396.50,0.0363
2396.00,0.0363
2395.50,0.0363
2395.00,0.0363
2394.50,0.0363
2394.00,0.0363
2393.50,0.0363
2393.00,0.0363
2392.50,0.0363
2392.00,0.0363
2391.50,0.0363
2391.00,0.0363
2390.50,0.0363
2390.00,0.0363
2389.50,0.0363
2389.00,0.0363
2388.50,0.0363
2388.00,0.0363
2387.50,0.0363
2387.00,0.0363
2386.50,0.0363
2386.00,0.0363
2385.50,0.0362
2385.00,0.0362
2384.50,0.0362
2384.00,0.0362
2383.50,0.0362
2383.00,0.0362
2382.50,0.0362
2382.00,0.0362
2381.50,0.0362
2381.00,0.0362
2380.50,0.0363
2380.00,0.0363
2379.50,0.0364
2379.00,0.0364
2378.50,0.0365
2378.00,0.0366
2377.50,0.0366
2377.00,0.0367
2376.50,0.0367
2376.00,0.0368
2375.50,0.0368
2375.00,0.0368
2374.50,0.0368
2374.00,0.0368
2373.50,0.0367
2373.00,0.0367
2372.50,0.0366
2372.00,0.0366
2371.50,0.0366
2371.00,0.0366
2370.50,0.0365
2370.00,0.0365
2369.50,0.0365
2369.00,0.0365
2368.50,0.0365
2368.00,0.0366
2367.50,0.0366
2367.00,0.0366
2366.50,0.0366
2366.00,0.0366
2365.50,0.0365
2365.00,0.0366
2364.50,0.0366
2364.00,0.0366
2363.50,0.0366
2363.00,0.0367
2362.50,0.0367
2362.00,0.0367
2361.50,0.0366
2361.00,0.0366
2360.50,0.0366
2360.00,0.0366
2359.50,0.0366
2359.00,0.0367
2358.50,0.0366
2358.00,0.0365
2357.50,0.0365
2357.00,0.0365
2356.50,0.0365
2356.00,0.0366
2355.50,0.0366
2355.00,0.0367
2354.50,0.0367
2354.00,0.0366
2353.50,0.0366
2353.00,0.0366
2352.50,0.0367
2352.00,0.0367
2351.50,0.0367
2351.00,0.0366
2350.50,0.0365
2350.00,0.0364
2349.50,0.0364
2349.00,0.0365
2348.50,0.0365
2348.00,0.0366
2347.50,0.0366
2347.00,0.0367
2346.50,0.0367
2346.00,0.0367
2345.50,0.0366
2345.00,0.0365
2344.50,0.0365
2344.00,0.0364
2343.50,0.0363
2343.00,0.0363
2342.50,0.0364
2342.00,0.0364
2341.50,0.0364
2341.00,0.0365
2340.50,0.0366
2340.00,0.0366
2339.50,0.0366
2339.00,0.0367
2338.50,0.0367
2338.00,0.0367
2337.50,0.0367
2337.00,0.0366
2336.50,0.0367
2336.00,0.0367
2335.50,0.0367
2335.00,0.0367
2334.50,0.0367
2334.00,0.0367
2333.50,0.0366
2333.00,0.0366
2332.50,0.0367
2332.00,0.0367
2331.50,0.0367
2331.00,0.0367
2330.50,0.0367
2330.00,0.0367
2329.50,0.0366
2329.00,0.0365
2328.50,0.0365
2328.00,0.0365
2327.50,0.0364
2327.00,0.0364
2326.50,0.0365
2326.00,0.0365
2325.50,0.0365
2325.00,0.0364
2324.50,0.0364
2324.00,0.0365
2323.50,0.0365
2323.00,0.0364
2322.50,0.0364
2322.00,0.0365
2321.50,0.0364
2321.00,0.0364
2320.50,0.0364
2320.00,0.0365
2319.50,0.0365
2319.00,0.0364
2318.50,0.0364
2318.00,0.0365
2317.50,0.0364
2317.00,0.0364
2316.50,0.0364
2316.00,0.0364
2315.50,0.0364
2315.00,0.0364
2314.50,0.0364
2314.00,0.0364
2313.50,0.0364
2313.00,0.0364
2312.50,0.0363
2312.00,0.0363
2311.50,0.0363
2311.00,0.0363
2310.50,0.0362
2310.00,0.0363
2309.50,0.0363
2309.00,0.0363
2308.50,0.0362
2308.00,0.0363
2307.50,0.0363
2307.00,0.0363
2306.50,0.0362
2306.00,0.0363
2305.50,0.0363
2305.00,0.0363
2304.50,0.0363
2304.00,0.0363
2303.50,0.0363
2303.00,0.0363
2302.50,0.0363
2302.00,0.0363
2301.50,0.0363
2301.00,0.0363
2300.50,0.0363
2300.00,0.0363
2299.50,0.0363
2299.00,0.0364
2298.50,0.0364
2298.00,0.0363
2297.50,0.0364
2297.00,0.0364
2296.50,0.0364
2296.00,0.0364
2295.50,0.0364
2295.00,0.0364
2294.50,0.0365
2294.00,0.0364
2293.50,0.0364
2293.00,0.0365
2292.50,0.0365
2292.00,0.0365
2291.50,0.0365
2291.00,0.0365
2290.50,0.0365
2290.00,0.0365
2289.50,0.0365
2289.00,0.0366
2288.50,0.0366
2288.00,0.0366
2287.50,0.0366
2287.00,0.0366
2286.50,0.0366
2286.00,0.0366
2285.50,0.0366
2285.00,0.0366
2284.50,0.0366
2284.00,0.0367
2283.50,0.0367
2283.00,0.0367
2282.50,0.0367
2282.00,0.0367
2281.50,0.0367
2281.00,0.0367
2280.50,0.0367
2280.00,0.0367
2279.50,0.0367
2279.00,0.0367
2278.50,0.0367
2278.00,0.0367
2277.50,0.0367
2277.00,0.0368
2276.50,0.0368
2276.00,0.0368
2275.50,0.0368
2275.00,0.0368
2274.50,0.0368
2274.00,0.0368
2273.50,0.0368
2273.00,0.0368
2272.50,0.0368
2272.00,0.0368
2271.50,0.0368
2271.00,0.0368
2270.50,0.0368
2270.00,0.0368
2269.50,0.0368
2269.00,0.0368
2268.50,0.0368
2268.00,0.0368
2267.50,0.0368
2267.00,0.0368
2266.50,0.0368
2266.00,0.0368
2265.50,0.0368
2265.00,0.0368
2264.50,0.0368
2264.00,0.0368
2263.50,0.0368
2263.00,0.0369
2262.50,0.0369
2262.00,0.0368
2261.50,0.0369
2261.00,0.0369
2260.50,0.0369
2260.00,0.0368
2259.50,0.0368
2259.00,0.0369
2258.50,0.0369
2258.00,0.0368
2257.50,0.0369
2257.00,0.0369
2256.50,0.0369
2256.00,0.0368
2255.50,0.0368
2255.00,0.0368
2254.50,0.0368
2254.00,0.0368
2253.50,0.0369
2253.00,0.0369
2252.50,0.0369
2252.00,0.0369
2251.50,0.0369
2251.00,0.0369
2250.50,0.0369
2250.00,0.0369
2249.50,0.0369
2249.00,0.0369
2248.50,0.0369
2248.00,0.0369
2247.50,0.0369
2247.00,0.0369
2246.50,0.0370
2246.00,0.0370
2245.50,0.0370
2245.00,0.0370
2244.50,0.0370
2244.00,0.0370
2243.50,0.0370
2243.00,0.0371
2242.50,0.0371
2242.00,0.0371
2241.50,0.0371
2241.00,0.0371
2240.50,0.0371
2240.00,0.0371
2239.50,0.0371
2239.00,0.0372
2238.50,0.0372
2238.00,0.0372
2237.50,0.0372
2237.00,0.0372
2236.50,0.0372
2236.00,0.0372
2235.50,0.0373
2235.00,0.0373
2234.50,0.0373
2234.00,0.0373
2233.50,0.0373
2233.00,0.0374
2232.50,0.0374
2232.00,0.0374
2231.50,0.0374
2231.00,0.0374
2230.50,0.0374
2230.00,0.0375
2229.50,0.0375
2229.00,0.0375
2228.50,0.0375
2228.00,0.0376
2227.50,0.0376
2227.00,0.0376
2226.50,0.0376
2226.00,0.0377
2225.50,0.0377
2225.00,0.0377
2224.50,0.0377
2224.00,0.0378
2223.50,0.0378
2223.00,0.0378
2222.50,0.0379
2222.00,0.0379
2221.50,0.0379
2221.00,0.0380
2220.50,0.0380
2220.00,0.0380
2219.50,0.0381
2219.00,0.0381
2218.50,0.0382
2218.00,0.0382
2217.50,0.0382
2217.00,0.0383
2216.50,0.0383
2216.00,0.0384
2215.50,0.0384
2215.00,0.0385
2214.50,0.0385
2214.00,0.0386
2213.50,0.0386
2213.00,0.0387
2212.50,0.0387
2212.00,0.0388
2211.50,0.0388
2211.00,0.0389
2210.50,0.0390
2210.00,0.0390
2209.50,0.0391
2209.00,0.0392
2208.50,0.0393
2208.00,0.0393
2207.50,0.0394
2207.00,0.0395
2206.50,0.0396
2206.00,0.0396
2205.50,0.0397
2205.00,0.0398
2204.50,0.0399
2204.00,0.0400
2203.50,0.0401
2203.00,0.0402
2202.50,0.0403
2202.00,0.0404
2201.50,0.0405
2201.00,0.0406
2200.50,0.0407
2200.00,0.0408
2199.50,0.0410
2199.00,0.0411
2198.50,0.0412
2198.00,0.0414
2197.50,0.0415
2197.00,0.0417
2196.50,0.0418
2196.00,0.0420
2195.50,0.0421
2195.00,0.0423
2194.50,0.0425
2194.00,0.0427
2193.50,0.0429
2193.00,0.0431
2192.50,0.0433
2192.00,0.0435
2191.50,0.0437
2191.00,0.0439
2190.50,0.0442
2190.00,0.0444
2189.50,0.0447
2189.00,0.0449
2188.50,0.0452
2188.00,0.0455
2187.50,0.0458
2187.00,0.0461
2186.50,0.0464
2186.00,0.0467
2185.50,0.0470
2185.00,0.0473
2184.50,0.0477
2184.00,0.0480
2183.50,0.0484
2183.00,0.0487
2182.50,0.0491
2182.00,0.0495
2181.50,0.0499
2181.00,0.0503
2180.50,0.0507
2180.00,0.0511
2179.50,0.0515
2179.00,0.0519
2178.50,0.0524
2178.00,0.0528
2177.50,0.0532
2177.00,0.0536
2176.50,0.0541
2176.00,0.0545
2175.50,0.0549
2175.00,0.0554
2174.50,0.0558
2174.00,0.0562
2173.50,0.0566
2173.00,0.0570
2172.50,0.0574
2172.00,0.0578
2171.50,0.0581
2171.00,0.0585
2170.50,0.0588
2170.00,0.0592
2169.50,0.0595
2169.00,0.0598
2168.50,0.0600
2168.00,0.0603
2167.50,0.0605
2167.00,0.0608
2166.50,0.0610
2166.00,0.0612
2165.50,0.0613
2165.00,0.0614
2164.50,0.0616
2164.00,0.0616
2163.50,0.0617
2163.00,0.0617
2162.50,0.0618
2162.00,0.0617
2161.50,0.0617
2161.00,0.0616
2160.50,0.0615
2160.00,0.0614
2159.50,0.0613
2159.00,0.0612
2158.50,0.0610
2158.00,0.0608
2157.50,0.0606
2157.00,0.0603
2156.50,0.0601
2156.00,0.0598
2155.50,0.0595
2155.00,0.0592
2154.50,0.0588
2154.00,0.0585
2153.50,0.0581
2153.00,0.0578
2152.50,0.0574
2152.00,0.0570
2151.50,0.0566
2151.00,0.0562
2150.50,0.0558
2150.00,0.0554
2149.50,0.0549
2149.00,0.0545
2148.50,0.0541
2148.00,0.0537
2147.50,0.0532
2147.00,0.0528
2146.50,0.0524
2146.00,0.0520
2145.50,0.0515
2145.00,0.0511
2144.50,0.0507
2144.00,0.0503
2143.50,0.0500
2143.00,0.0496
2142.50,0.0492
2142.00,0.0488
2141.50,0.0485
2141.00,0.0481
2140.50,0.0478
2140.00,0.0474
2139.50,0.0471
2139.00,0.0468
2138.50,0.0465
2138.00,0.0462
2137.50,0.0459
2137.00,0.0456
2136.50,0.0453
2136.00,0.0451
2135.50,0.0448
2135.00,0.0446
2134.50,0.0443
2134.00,0.0441
2133.50,0.0439
2133.00,0.0437
2132.50,0.0435
2132.00,0.0433
2131.50,0.0431
2131.00,0.0429
2130.50,0.0427
2130.00,0.0426
2129.50,0.0424
2129.00,0.0423
2128.50,0.0421
2128.00,0.0420
2127.50,0.0418
2127.00,0.0417
2126.50,0.0416
2126.00,0.0415
2125.50,0.0414
2125.00,0.0413
2124.50,0.0412
2124.00,0.0411
2123.50,0.0410
2123.00,0.0409
2122.50,0.0408
2122.00,0.0407
2121.50,0.0406
2121.00,0.0406
2120.50,0.0405
2120.00,0.0404
2119.50,0.0403
2119.00,0.0403
2118.50,0.0402
2118.00,0.0401
2117.50,0.0401
2117.00,0.0400
2116.50,0.0400
2116.00,0.0399
2115.50,0.0399
2115.00,0.0398
2114.50,0.0398
2114.00,0.0397
2113.50,0.0397
2113.00,0.0396
2112.50,0.0396
2112.00,0.0396
2111.50,0.0395
2111.00,0.0395
2110.50,0.0395
2110.00,0.0394
2109.50,0.0394
2109.00,0.0394
2108.50,0.0394
2108.00,0.0393
2107.50,0.0393
2107.00,0.0393
2106.50,0.0393
2106.00,0.0392
2105.50,0.0392
2105.00,0.0392
2104.50,0.0392
2104.00,0.0392
2103.50,0.0392
2103.00,0.0391
2102.50,0.0391
2102.00,0.0391
2101.50,0.0391
2101.00,0.0390
2100.50,0.0390
2100.00,0.0390
2099.50,0.0390
2099.00,0.0390
2098.50,0.0390
2098.00,0.0390
2097.50,0.0389
2097.00,0.0389
2096.50,0.0389
2096.00,0.0389
2095.50,0.0389
2095.00,0.0389
2094.50,0.0389
2094.00,0.0388
2093.50,0.0388
2093.00,0.0388
2092.50,0.0388
2092.00,0.0388
2091.50,0.0388
2091.00,0.0388
2090.50,0.0388
2090.00,0.0387
2089.50,0.0387
2089.00,0.0387
2088.50,0.0387
2088.00,0.0387
2087.50,0.0387
2087.00,0.0387
2086.50,0.0387
2086.00,0.0387
2085.50,0.0387
2085.00,0.0387
2084.50,0.0387
2084.00,0.0387
2083.50,0.0387
2083.00,0.0387
2082.50,0.0387
2082.00,0.0388
2081.50,0.0388
2081.00,0.0388
2080.50,0.0388
2080.00,0.0388
2079.50,0.0388
2079.00,0.0388
2078.50,0.0388
2078.00,0.0388
2077.50,0.0388
2077.00,0.0388
2076.50,0.0388
2076.00,0.0388
2075.50,0.0389
2075.00,0.0389
2074.50,0.0389
2074.00,0.0389
2073.50,0.0389
2073.00,0.0389
2072.50,0.0389
2072.00,0.0390
2071.50,0.0390
2071.00,0.0390
2070.50,0.0390
2070.00,0.0390
2069.50,0.0391
2069.00,0.0391
2068.50,0.0391
2068.00,0.0391
2067.50,0.0392
2067.00,0.0392
2066.50,0.0392
2066.00,0.0392
2065.50,0.0392
2065.00,0.0393
2064.50,0.0393
2064.00,0.0393
2063.50,0.0394
2063.00,0.0394
2062.50,0.0394
2062.00,0.0394
2061.50,0.0395
2061.00,0.0395
2060.50,0.0395
2060.00,0.0395
2059.50,0.0396
2059.00,0.0396
2058.50,0.0396
2058.00,0.0396
2057.50,0.0397
2057.00,0.0397
2056.50,0.0397
2056.00,0.0397
2055.50,0.0398
2055.00,0.0398
2054.50,0.0398
2054.00,0.0398
2053.50,0.0398
2053.00,0.0398
2052.50,0.0398
2052.00,0.0399
2051.50,0.0399
2051.00,0.0399
2050.50,0.0398
2050.00,0.0398
2049.50,0.0398
2049.00,0.0397
2048.50,0.0397
2048.00,0.0397
2047.50,0.0396
2047.00,0.0396
2046.50,0.0395
2046.00,0.0394
2045.50,0.0394
2045.00,0.0393
2044.50,0.0392
2044.00,0.0391
2043.50,0.0390
2043.00,0.0390
2042.50,0.0389
2042.00,0.0388
2041.50,0.0387
2041.00,0.0386
2040.50,0.0385
2040.00,0.0384
2039.50,0.0384
2039.00,0.0383
2038.50,0.0382
2038.00,0.0382
2037.50,0.0381
2037.00,0.0381
2036.50,0.0380
2036.00,0.0380
2035.50,0.0379
2035.00,0.0379
2034.50,0.0378
2034.00,0.0378
2033.50,0.0378
2033.00,0.0378
2032.50,0.0377
2032.00,0.0377
2031.50,0.0377
2031.00,0.0377
2030.50,0.0376
2030.00,0.0376
2029.50,0.0376
2029.00,0.0376
2028.50,0.0376
2028.00,0.0376
2027.50,0.0377
2027.00,0.0377
2026.50,0.0377
2026.00,0.0377
2025.50,0.0377
2025.00,0.0377
2024.50,0.0377
2024.00,0.0378
2023.50,0.0378
2023.00,0.0378
2022.50,0.0378
2022.00,0.0379
2021.50,0.0379
2021.00,0.0379
2020.50,0.0380
2020.00,0.0380
2019.50,0.0380
2019.00,0.0381
2018.50,0.0381
2018.00,0.0381
2017.50,0.0382
2017.00,0.0382
2016.50,0.0382
2016.00,0.0383
2015.50,0.0383
2015.00,0.0384
2014.50,0.0384
2014.00,0.0385
2013.50,0.0385
2013.00,0.0386
2012.50,0.0386
2012.00,0.0387
2011.50,0.0387
2011.00,0.0388
2010.50,0.0388
2010.00,0.0389
2009.50,0.0389
2009.00,0.0390
2008.50,0.0390
2008.00,0.0390
2007.50,0.0391
2007.00,0.0391
2006.50,0.0391
2006.00,0.0391
2005.50,0.0392
2005.00,0.0392
2004.50,0.0392
2004.00,0.0392
2003.50,0.0393
2003.00,0.0393
2002.50,0.0393
2002.00,0.0393
2001.50,0.0394
2001.00,0.0394
2000.50,0.0394
2000.00,0.0394
1999.50,0.0395
1999.00,0.0395
1998.50,0.0395
1998.00,0.0395
1997.50,0.0395
1997.00,0.0395
1996.50,0.0395
1996.00,0.0395
1995.50,0.0395
1995.00,0.0395
1994.50,0.0395
1994.00,0.0395
1993.50,0.0394
1993.00,0.0394
1992.50,0.0394
1992.00,0.0394
1991.50,0.0394
1991.00,0.0394
1990.50,0.0394
1990.00,0.0394
1989.50,0.0395
1989.00,0.0395
1988.50,0.0395
1988.00,0.0395
1987.50,0.0396
1987.00,0.0396
1986.50,0.0396
1986.00,0.0397
1985.50,0.0397
1985.00,0.0398
1984.50,0.0398
1984.00,0.0399
1983.50,0.0399
1983.00,0.0400
1982.50,0.0400
1982.00,0.0401
1981.50,0.0401
1981.00,0.0402
1980.50,0.0403
1980.00,0.0403
1979.50,0.0404
1979.00,0.0405
1978.50,0.0406
1978.00,0.0406
1977.50,0.0407
1977.00,0.0408
1976.50,0.0409
1976.00,0.0410
1975.50,0.0411
1975.00,0.0412
1974.50,0.0413
1974.00,0.0414
1973.50,0.0415
1973.00,0.0416
1972.50,0.0417
1972.00,0.0418
1971.50,0.0420
1971.00,0.0421
1970.50,0.0422
1970.00,0.0423
1969.50,0.0424
1969.00,0.0425
1968.50,0.0426
1968.00,0.0428
1967.50,0.0429
1967.00,0.0430
1966.50,0.0431
1966.00,0.0432
1965.50,0.0433
1965.00,0.0434
1964.50,0.0435
1964.00,0.0436
1963.50,0.0437
1963.00,0.0438
1962.50,0.0439
1962.00,0.0440
1961.50,0.0441
1961.00,0.0442
1960.50,0.0442
1960.00,0.0443
1959.50,0.0444
1959.00,0.0445
1958.50,0.0446
1958.00,0.0447
1957.50,0.0448
1957.00,0.0449
1956.50,0.0450
1956.00,0.0451
1955.50,0.0452
1955.00,0.0453
1954.50,0.0454
1954.00,0.0455
1953.50,0.0456
1953.00,0.0457
1952.50,0.0458
1952.00,0.0460
1951.50,0.0461
1951.00,0.0462
1950.50,0.0463
1950.00,0.0464
1949.50,0.0466
1949.00,0.0467
1948.50,0.0468
1948.00,0.0469
1947.50,0.0470
1947.00,0.0471
1946.50,0.0472
1946.00,0.0472
1945.50,0.0473
1945.00,0.0473
1944.50,0.0473
1944.00,0.0473
1943.50,0.0473
1943.00,0.0473
1942.50,0.0472
1942.00,0.0471
1941.50,0.0470
1941.00,0.0469
1940.50,0.0468
1940.00,0.0467
1939.50,0.0465
1939.00,0.0464
1938.50,0.0462
1938.00,0.0460
1937.50,0.0458
1937.00,0.0456
1936.50,0.0455
1936.00,0.0453
1935.50,0.0451
1935.00,0.0449
1934.50,0.0447
1934.00,0.0446
1933.50,0.0444
1933.00,0.0443
1932.50,0.0441
1932.00,0.0440
1931.50,0.0439
1931.00,0.0438
1930.50,0.0437
1930.00,0.0436
1929.50,0.0435
1929.00,0.0434
1928.50,0.0433
1928.00,0.0432
1927.50,0.0432
1927.00,0.0431
1926.50,0.0430
1926.00,0.0430
1925.50,0.0429
1925.00,0.0429
1924.50,0.0428
1924.00,0.0428
1923.50,0.0427
1923.00,0.0427
1922.50,0.0426
1922.00,0.0426
1921.50,0.0425
1921.00,0.0425
1920.50,0.0425
1920.00,0.0425
1919.50,0.0424
1919.00,0.0424
1918.50,0.0423
1918.00,0.0423
1917.50,0.0422
1917.00,0.0421
1916.50,0.0421
1916.00,0.0420
1915.50,0.0420
1915.00,0.0419
1914.50,0.0418
1914.00,0.0417
1913.50,0.0417
1913.00,0.0416
1912.50,0.0415
1912.00,0.0415
1911.50,0.0414
1911.00,0.0413
1910.50,0.0412
1910.00,0.0411
1909.50,0.0410
1909.00,0.0410
1908.50,0.0409
1908.00,0.0409
1907.50,0.0408
1907.00,0.0408
1906.50,0.0407
1906.00,0.0407
1905.50,0.0406
1905.00,0.0406
1904.50,0.0405
1904.00,0.0405
1903.50,0.0405
1903.00,0.0404
1902.50,0.0404
1902.00,0.0404
1901.50,0.0403
1901.00,0.0403
1900.50,0.0403
1900.00,0.0403
1899.50,0.0402
1899.00,0.0402
1898.50,0.0402
1898.00,0.0402
1897.50,0.0402
1897.00,0.0402
1896.50,0.0402
1896.00,0.0402
1895.50,0.0401
1895.00,0.0401
1894.50,0.0401
1894.00,0.0401
1893.50,0.0402
1893.00,0.0402
1892.50,0.0402
1892.00,0.0402
1891.50,0.0402
1891.00,0.0402
1890.50,0.0401
1890.00,0.0401
1889.50,0.0401
1889.00,0.0401
1888.50,0.0401
1888.00,0.0401
1887.50,0.0401
1887.00,0.0401
1886.50,0.0402
1886.00,0.0402
1885.50,0.0402
1885.00,0.0402
1884.50,0.0402
1884.00,0.0402
1883.50,0.0402
1883.00,0.0402
1882.50,0.0402
1882.00,0.0402
1881.50,0.0402
1881.00,0.0402
1880.50,0.0402
1880.00,0.0402
1879.50,0.0402
1879.00,0.0402
1878.50,0.0402
1878.00,0.0402
1877.50,0.0402
1877.00,0.0402
1876.50,0.0402
1876.00,0.0403
1875.50,0.0403
1875.00,0.0403
1874.50,0.0403
1874.00,0.0403
1873.50,0.0403
1873.00,0.0403
1872.50,0.0403
1872.00,0.0403
1871.50,0.0403
1871.00,0.0403
1870.50,0.0403
1870.00,0.0403
1869.50,0.0403
1869.00,0.0402
1868.50,0.0402
1868.00,0.0402
1867.50,0.0402
1867.00,0.0402
1866.50,0.0402
1866.00,0.0402
1865.50,0.0402
1865.00,0.0402
1864.50,0.0403
1864.00,0.0403
1863.50,0.0403
1863.00,0.0403
1862.50,0.0403
1862.00,0.0403
1861.50,0.0403
1861.00,0.0403
1860.50,0.0402
1860.00,0.0402
1859.50,0.0402
1859.00,0.0402
1858.50,0.0402
1858.00,0.0402
1857.50,0.0402
1857.00,0.0402
1856.50,0.0402
1856.00,0.0403
1855.50,0.0403
1855.00,0.0403
1854.50,0.0403
1854.00,0.0403
1853.50,0.0403
1853.00,0.0403
1852.50,0.0403
1852.00,0.0403
1851.50,0.0403
1851.00,0.0403
1850.50,0.0403
1850.00,0.0403
1849.50,0.0403
1849.00,0.0403
1848.50,0.0403
1848.00,0.0402
1847.50,0.0402
1847.00,0.0402
1846.50,0.0402
1846.00,0.0402
1845.50,0.0402
1845.00,0.0401
1844.50,0.0401
1844.00,0.0402
1843.50,0.0402
1843.00,0.0401
1842.50,0.0401
1842.00,0.0401
1841.50,0.0401
1841.00,0.0401
1840.50,0.0401
1840.00,0.0401
1839.50,0.0401
1839.00,0.0401
1838.50,0.0401
1838.00,0.0401
1837.50,0.0401
1837.00,0.0401
1836.50,0.0401
1836.00,0.0401
1835.50,0.0401
1835.00,0.0401
1834.50,0.0401
1834.00,0.0401
1833.50,0.0401
1833.00,0.0401
1832.50,0.0401
1832.00,0.0402
1831.50,0.0401
1831.00,0.0401
1830.50,0.0401
1830.00,0.0401
1829.50,0.0401
1829.00,0.0401
1828.50,0.0402
1828.00,0.0402
1827.50,0.0403
1827.00,0.0403
1826.50,0.0403
1826.00,0.0403
1825.50,0.0403
1825.00,0.0403
1824.50,0.0403
1824.00,0.0404
1823.50,0.0404
1823.00,0.0404
1822.50,0.0405
1822.00,0.0405
1821.50,0.0405
1821.00,0.0405
1820.50,0.0406
1820.00,0.0406
1819.50,0.0406
1819.00,0.0407
1818.50,0.0407
1818.00,0.0407
1817.50,0.0408
1817.00,0.0408
1816.50,0.0409
1816.00,0.0409
1815.50,0.0409
1815.00,0.0410
1814.50,0.0410
1814.00,0.0410
1813.50,0.0411
1813.00,0.0411
1812.50,0.0411
1812.00,0.0412
1811.50,0.0412
1811.00,0.0412
1810.50,0.0412
1810.00,0.0413
1809.50,0.0413
1809.00,0.0414
1808.50,0.0415
1808.00,0.0415
1807.50,0.0416
1807.00,0.0416
1806.50,0.0417
1806.00,0.0417
1805.50,0.0418
1805.00,0.0418
1804.50,0.0418
1804.00,0.0419
1803.50,0.0419
1803.00,0.0420
1802.50,0.0420
1802.00,0.0420
1801.50,0.0421
1801.00,0.0421
1800.50,0.0421
1800.00,0.0422
1799.50,0.0422
1799.00,0.0423
1798.50,0.0423
1798.00,0.0424
1797.50,0.0425
1797.00,0.0425
1796.50,0.0425
1796.00,0.0426
1795.50,0.0426
1795.00,0.0427
1794.50,0.0427
1794.00,0.0428
1793.50,0.0428
1793.00,0.0429
1792.50,0.0429
1792.00,0.0429
1791.50,0.0430
1791.00,0.0430
1790.50,0.0430
1790.00,0.0431
1789.50,0.0431
1789.00,0.0431
1788.50,0.0432
1788.00,0.0432
1787.50,0.0433
1787.00,0.0433
1786.50,0.0434
1786.00,0.0434
1785.50,0.0434
1785.00,0.0434
1784.50,0.0435
1784.00,0.0435
1783.50,0.0435
1783.00,0.0435
1782.50,0.0435
1782.00,0.0436
1781.50,0.0435
1781.00,0.0435
1780.50,0.0436
1780.00,0.0436
1779.50,0.0436
1779.00,0.0436
1778.50,0.0436
1778.00,0.0436
1777.50,0.0436
1777.00,0.0437
1776.50,0.0437
1776.00,0.0436
1775.50,0.0436
1775.00,0.0437
1774.50,0.0437
1774.00,0.0436
1773.50,0.0436
1773.00,0.0437
1772.50,0.0436
1772.00,0.0436
1771.50,0.0435
1771.00,0.0435
1770.50,0.0435
1770.00,0.0436
1769.50,0.0436
1769.00,0.0436
1768.50,0.0436
1768.00,0.0436
1767.50,0.0436
1767.00,0.0436
1766.50,0.0435
1766.00,0.0435
1765.50,0.0435
1765.00,0.0435
1764.50,0.0435
1764.00,0.0435
1763.50,0.0435
1763.00,0.0434
1762.50,0.0434
1762.00,0.0434
1761.50,0.0434
1761.00,0.0434
1760.50,0.0434
1760.00,0.0434
1759.50,0.0434
1759.00,0.0434
1758.50,0.0434
1758.00,0.0434
1757.50,0.0434
1757.00,0.0434
1756.50,0.0434
1756.00,0.0434
1755.50,0.0433
1755.00,0.0433
1754.50,0.0434
1754.00,0.0434
1753.50,0.0434
1753.00,0.0434
1752.50,0.0435
1752.00,0.0435
1751.50,0.0435
1751.00,0.0435
1750.50,0.0434
1750.00,0.0434
1749.50,0.0433
1749.00,0.0433
1748.50,0.0433
1748.00,0.0433
1747.50,0.0433
1747.00,0.0434
1746.50,0.0434
1746.00,0.0435
1745.50,0.0435
1745.00,0.0436
1744.50,0.0436
1744.00,0.0436
1743.50,0.0436
1743.00,0.0436
1742.50,0.0436
1742.00,0.0436
1741.50,0.0436
1741.00,0.0436
1740.50,0.0436
1740.00,0.0436
1739.50,0.0436
1739.00,0.0436
1738.50,0.0436
1738.00,0.0436
1737.50,0.0436
1737.00,0.0437
1736.50,0.0437
1736.00,0.0437
1735.50,0.0438
1735.00,0.0439
1734.50,0.0440
1734.00,0.0440
1733.50,0.0439
1733.00,0.0439
1732.50,0.0439
1732.00,0.0439
1731.50,0.0439
1731.00,0.0439
1730.50,0.0440
1730.00,0.0440
1729.50,0.0440
1729.00,0.0440
1728.50,0.0441
1728.00,0.0441
1727.50,0.0441
1727.00,0.0442
1726.50,0.0442
1726.00,0.0442
1725.50,0.0442
1725.00,0.0442
1724.50,0.0442
1724.00,0.0442
1723.50,0.0442
1723.00,0.0443
1722.50,0.0443
1722.00,0.0443
1721.50,0.0443
1721.00,0.0443
1720.50,0.0443
1720.00,0.0443
1719.50,0.0444
1719.00,0.0444
1718.50,0.0443
1718.00,0.0443
1717.50,0.0443
1717.00,0.0444
1716.50,0.0444
1716.00,0.0443
1715.50,0.0443
1715.00,0.0443
1714.50,0.0442
1714.00,0.0442
1713.50,0.0442
1713.00,0.0443
1712.50,0.0443
1712.00,0.0443
1711.50,0.0443
1711.00,0.0443
1710.50,0.0442
1710.00,0.0442
1709.50,0.0442
1709.00,0.0442
1708.50,0.0442
1708.00,0.0442
1707.50,0.0442
1707.00,0.0442
1706.50,0.0442
1706.00,0.0441
1705.50,0.0441
1705.00,0.0441
1704.50,0.0441
1704.00,0.0441
1703.50,0.0442
1703.00,0.0443
1702.50,0.0443
1702.00,0.0443
1701.50,0.0443
1701.00,0.0444
1700.50,0.0445
1700.00,0.0443
1699.50,0.0442
1699.00,0.0443
1698.50,0.0443
1698.00,0.0443
1697.50,0.0442
1697.00,0.0442
1696.50,0.0443
1696.00,0.0444
1695.50,0.0445
1695.00,0.0445
1694.50,0.0444
1694.00,0.0444
1693.50,0.0444
1693.00,0.0444
1692.50,0.0444
1692.00,0.0445
1691.50,0.0445
1691.00,0.0445
1690.50,0.0445
1690.00,0.0445
1689.50,0.0445
1689.00,0.0445
1688.50,0.0445
1688.00,0.0446
1687.50,0.0446
1687.00,0.0446
1686.50,0.0447
1686.00,0.0447
1685.50,0.0447
1685.00,0.0448
1684.50,0.0448
1684.00,0.0446
1683.50,0.0445
1683.00,0.0446
1682.50,0.0447
1682.00,0.0448
1681.50,0.0448
1681.00,0.0448
1680.50,0.0449
1680.00,0.0449
1679.50,0.0450
1679.00,0.0450
1678.50,0.0450
1678.00,0.0451
1677.50,0.0451
1677.00,0.0452
1676.50,0.0452
1676.00,0.0453
1675.50,0.0453
1675.00,0.0453
1674.50,0.0454
1674.00,0.0454
1673.50,0.0454
1673.00,0.0454
1672.50,0.0455
1672.00,0.0455
1671.50,0.0456
1671.00,0.0456
1670.50,0.0456
1670.00,0.0457
1669.50,0.0457
1669.00,0.0458
1668.50,0.0458
1668.00,0.0458
1667.50,0.0459
1667.00,0.0460
1666.50,0.0460
1666.00,0.0461
1665.50,0.0461
1665.00,0.0462
1664.50,0.0462
1664.00,0.0462
1663.50,0.0463
1663.00,0.0463
1662.50,0.0463
1662.00,0.0464
1661.50,0.0465
1661.00,0.0465
1660.50,0.0466
1660.00,0.0466
1659.50,0.0467
1659.00,0.0468
1658.50,0.0468
1658.00,0.0468
1657.50,0.0469
1657.00,0.0469
1656.50,0.0470
1656.00,0.0470
1655.50,0.0470
1655.00,0.0471
1654.50,0.0471
1654.00,0.0471
1653.50,0.0472
1653.00,0.0472
1652.50,0.0472
1652.00,0.0473
1651.50,0.0474
1651.00,0.0474
1650.50,0.0474
1650.00,0.0475
1649.50,0.0475
1649.00,0.0475
1648.50,0.0476
1648.00,0.0476
1647.50,0.0476
1647.00,0.0476
1646.50,0.0477
1646.00,0.0478
1645.50,0.0479
1645.00,0.0479
1644.50,0.0480
1644.00,0.0480
1643.50,0.0480
1643.00,0.0480
1642.50,0.0481
1642.00,0.0481
1641.50,0.0482
1641.00,0.0482
1640.50,0.0482
1640.00,0.0483
1639.50,0.0483
1639.00,0.0483
1638.50,0.0484
1638.00,0.0484
1637.50,0.0484
1637.00,0.0485
1636.50,0.0485
1636.00,0.0485
1635.50,0.0486
1635.00,0.0486
1634.50,0.0486
1634.00,0.0486
1633.50,0.0487
1633.00,0.0487
1632.50,0.0488
1632.00,0.0489
1631.50,0.0489
1631.00,0.0490
1630.50,0.0490
1630.00,0.0491
1629.50,0.0491
1629.00,0.0491
1628.50,0.0491
1628.00,0.0491
1627.50,0.0492
1627.00,0.0493
1626.50,0.0493
1626.00,0.0494
1625.50,0.0495
1625.00,0.0495
1624.50,0.0496
1624.00,0.0496
1623.50,0.0497
1623.00,0.0497
1622.50,0.0497
1622.00,0.0498
1621.50,0.0499
1621.00,0.0499
1620.50,0.0500
1620.00,0.0501
1619.50,0.0501
1619.00,0.0502
1618.50,0.0502
1618.00,0.0503
1617.50,0.0503
1617.00,0.0504
1616.50,0.0505
1616.00,0.0506
1615.50,0.0506
1615.00,0.0506
1614.50,0.0506
1614.00,0.0507
1613.50,0.0508
1613.00,0.0509
1612.50,0.0509
1612.00,0.0510
1611.50,0.0510
1611.00,0.0511
1610.50,0.0511
1610.00,0.0511
1609.50,0.0512
1609.00,0.0512
1608.50,0.0513
1608.00,0.0513
1607.50,0.0514
1607.00,0.0515
1606.50,0.0515
1606.00,0.0516
1605.50,0.0516
1605.00,0.0517
1604.50,0.0518
1604.00,0.0518
1603.50,0.0519
1603.00,0.0520
1602.50,0.0522
1602.00,0.0523
1601.50,0.0525
1601.00,0.0527
1600.50,0.0529
1600.00,0.0532
1599.50,0.0536
1599.00,0.0541
1598.50,0.0545
1598.00,0.0549
1597.50,0.0552
1597.00,0.0554
1596.50,0.0554
1596.00,0.0551
1595.50,0.0548
1595.00,0.0543
1594.50,0.0538
1594.00,0.0533
1593.50,0.0529
1593.00,0.0526
1592.50,0.0524
1592.00,0.0521
1591.50,0.0519
1591.00,0.0518
1590.50,0.0517
1590.00,0.0515
1589.50,0.0514
1589.00,0.0513
1588.50,0.0512
1588.00,0.0511
1587.50,0.0510
1587.00,0.0509
1586.50,0.0509
1586.00,0.0508
1585.50,0.0507
1585.00,0.0506
1584.50,0.0506
1584.00,0.0505
1583.50,0.0504
1583.00,0.0504
1582.50,0.0503
1582.00,0.0502
1581.50,0.0502
1581.00,0.0501
1580.50,0.0500
1580.00,0.0500
1579.50,0.0499
1579.00,0.0499
1578.50,0.0498
1578.00,0.0498
1577.50,0.0498
1577.00,0.0497
1576.50,0.0497
1576.00,0.0496
1575.50,0.0495
1575.00,0.0494
1574.50,0.0493
1574.00,0.0492
1573.50,0.0492
1573.00,0.0492
1572.50,0.0491
1572.00,0.0491
1571.50,0.0491
1571.00,0.0490
1570.50,0.0490
1570.00,0.0489
1569.50,0.0488
1569.00,0.0487
1568.50,0.0486
1568.00,0.0486
1567.50,0.0486
1567.00,0.0486
1566.50,0.0486
1566.00,0.0486
1565.50,0.0485
1565.00,0.0485
1564.50,0.0484
1564.00,0.0484
1563.50,0.0484
1563.00,0.0484
1562.50,0.0484
1562.00,0.0483
1561.50,0.0483
1561.00,0.0484
1560.50,0.0485
1560.00,0.0487
1559.50,0.0486
1559.00,0.0484
1558.50,0.0482
1558.00,0.0481
1557.50,0.0481
1557.00,0.0482
1556.50,0.0482
1556.00,0.0482
1555.50,0.0482
1555.00,0.0483
1554.50,0.0483
1554.00,0.0483
1553.50,0.0483
1553.00,0.0482
1552.50,0.0482
1552.00,0.0482
1551.50,0.0482
1551.00,0.0482
1550.50,0.0482
1550.00,0.0482
1549.50,0.0482
1549.00,0.0482
1548.50,0.0482
1548.00,0.0482
1547.50,0.0482
1547.00,0.0483
1546.50,0.0483
1546.00,0.0483
1545.50,0.0483
1545.00,0.0483
1544.50,0.0483
1544.00,0.0483
1543.50,0.0483
1543.00,0.0483
1542.50,0.0483
1542.00,0.0484
1541.50,0.0484
1541.00,0.0484
1540.50,0.0484
1540.00,0.0484
1539.50,0.0483
1539.00,0.0483
1538.50,0.0483
1538.00,0.0484
1537.50,0.0484
1537.00,0.0484
1536.50,0.0484
1536.00,0.0484
1535.50,0.0485
1535.00,0.0485
1534.50,0.0485
1534.00,0.0485
1533.50,0.0484
1533.00,0.0484
1532.50,0.0484
1532.00,0.0484
1531.50,0.0484
1531.00,0.0485
1530.50,0.0485
1530.00,0.0485
1529.50,0.0486
1529.00,0.0485
1528.50,0.0485
1528.00,0.0486
1527.50,0.0486
1527.00,0.0486
1526.50,0.0486
1526.00,0.0486
1525.50,0.0487
1525.00,0.0487
1524.50,0.0486
1524.00,0.0486
1523.50,0.0486
1523.00,0.0486
1522.50,0.0486
1522.00,0.0486
1521.50,0.0487
1521.00,0.0486
1520.50,0.0486
1520.00,0.0486
1519.50,0.0486
1519.00,0.0486
1518.50,0.0486
1518.00,0.0486
1517.50,0.0486
1517.00,0.0485
1516.50,0.0485
1516.00,0.0485
1515.50,0.0485
1515.00,0.0485
1514.50,0.0485
1514.00,0.0486
1513.50,0.0486
1513.00,0.0486
1512.50,0.0486
1512.00,0.0486
1511.50,0.0486
1511.00,0.0486
1510.50,0.0486
1510.00,0.0486
1509.50,0.0486
1509.00,0.0486
1508.50,0.0487
1508.00,0.0487
1507.50,0.0488
1507.00,0.0488
1506.50,0.0486
1506.00,0.0485
1505.50,0.0485
1505.00,0.0486
1504.50,0.0486
1504.00,0.0486
1503.50,0.0486
1503.00,0.0487
1502.50,0.0487
1502.00,0.0487
1501.50,0.0487
1501.00,0.0488
1500.50,0.0488
1500.00,0.0488
1499.50,0.0488
1499.00,0.0488
1498.50,0.0489
1498.00,0.0489
1497.50,0.0489
1497.00,0.0490
1496.50,0.0491
1496.00,0.0492
1495.50,0.0492
1495.00,0.0492
1494.50,0.0492
1494.00,0.0493
1493.50,0.0494
1493.00,0.0495
1492.50,0.0496
1492.00,0.0497
1491.50,0.0498
1491.00,0.0500
1490.50,0.0501
1490.00,0.0502
1489.50,0.0504
1489.00,0.0505
1488.50,0.0507
1488.00,0.0508
1487.50,0.0509
1487.00,0.0511
1486.50,0.0512
1486.00,0.0513
1485.50,0.0513
1485.00,0.0514
1484.50,0.0515
1484.00,0.0516
1483.50,0.0518
1483.00,0.0519
1482.50,0.0519
1482.00,0.0519
1481.50,0.0520
1481.00,0.0520
1480.50,0.0521
1480.00,0.0521
1479.50,0.0521
1479.00,0.0522
1478.50,0.0522
1478.00,0.0523
1477.50,0.0523
1477.00,0.0524
1476.50,0.0524
1476.00,0.0524
1475.50,0.0525
1475.00,0.0526
1474.50,0.0526
1474.00,0.0527
1473.50,0.0529
1473.00,0.0530
1472.50,0.0531
1472.00,0.0532
1471.50,0.0534
1471.00,0.0535
1470.50,0.0537
1470.00,0.0539
1469.50,0.0542
1469.00,0.0544
1468.50,0.0547
1468.00,0.0550
1467.50,0.0553
1467.00,0.0556
1466.50,0.0558
1466.00,0.0561
1465.50,0.0565
1465.00,0.0569
1464.50,0.0574
1464.00,0.0578
1463.50,0.0582
1463.00,0.0586
1462.50,0.0590
1462.00,0.0595
1461.50,0.0600
1461.00,0.0605
1460.50,0.0609
1460.00,0.0614
1459.50,0.0619
1459.00,0.0624
1458.50,0.0629
1458.00,0.0634
1457.50,0.0641
1457.00,0.0648
1456.50,0.0655
1456.00,0.0659
1455.50,0.0663
1455.00,0.0667
1454.50,0.0672
1454.00,0.0677
1453.50,0.0683
1453.00,0.0690
1452.50,0.0696
1452.00,0.0703
1451.50,0.0711
1451.00,0.0718
1450.50,0.0725
1450.00,0.0731
1449.50,0.0738
1449.00,0.0744
1448.50,0.0751
1448.00,0.0758
1447.50,0.0763
1447.00,0.0768
1446.50,0.0770
1446.00,0.0772
1445.50,0.0773
1445.00,0.0774
1444.50,0.0773
1444.00,0.0771
1443.50,0.0768
1443.00,0.0764
1442.50,0.0760
1442.00,0.0755
1441.50,0.0749
1441.00,0.0744
1440.50,0.0738
1440.00,0.0732
1439.50,0.0727
1439.00,0.0722
1438.50,0.0718
1438.00,0.0714
1437.50,0.0711
1437.00,0.0707
1436.50,0.0701
1436.00,0.0696
1435.50,0.0693
1435.00,0.0692
1434.50,0.0691
1434.00,0.0690
1433.50,0.0690
1433.00,0.0691
1432.50,0.0692
1432.00,0.0693
1431.50,0.0695
1431.00,0.0698
1430.50,0.0701
1430.00,0.0705
1429.50,0.0711
1429.00,0.0717
1428.50,0.0723
1428.00,0.0730
1427.50,0.0738
1427.00,0.0747
1426.50,0.0757
1426.00,0.0767
1425.50,0.0779
1425.00,0.0791
1424.50,0.0806
1424.00,0.0823
1423.50,0.0842
1423.00,0.0861
1422.50,0.0879
1422.00,0.0899
1421.50,0.0919
1421.00,0.0938
1420.50,0.0958
1420.00,0.0982
1419.50,0.1015
1419.00,0.1049
1418.50,0.1074
1418.00,0.1093
1417.50,0.1112
1417.00,0.1133
1416.50,0.1152
1416.00,0.1170
1415.50,0.1187
1415.00,0.1201
1414.50,0.1213
1414.00,0.1223
1413.50,0.1232
1413.00,0.1238
1412.50,0.1241
1412.00,0.1244
1411.50,0.1244
1411.00,0.1243
1410.50,0.1241
1410.00,0.1237
1409.50,0.1232
1409.00,0.1225
1408.50,0.1218
1408.00,0.1209
1407.50,0.1200
1407.00,0.1190
1406.50,0.1180
1406.00,0.1171
1405.50,0.1161
1405.00,0.1149
1404.50,0.1138
1404.00,0.1130
1403.50,0.1122
1403.00,0.1115
1402.50,0.1108
1402.00,0.1102
1401.50,0.1095
1401.00,0.1087
1400.50,0.1079
1400.00,0.1070
1399.50,0.1057
1399.00,0.1042
1398.50,0.1026
1398.00,0.1010
1397.50,0.0994
1397.00,0.0978
1396.50,0.0961
1396.00,0.0943
1395.50,0.0924
1395.00,0.0903
1394.50,0.0881
1394.00,0.0861
1393.50,0.0845
1393.00,0.0830
1392.50,0.0817
1392.00,0.0804
1391.50,0.0792
1391.00,0.0779
1390.50,0.0768
1390.00,0.0758
1389.50,0.0749
1389.00,0.0741
1388.50,0.0735
1388.00,0.0728
1387.50,0.0720
1387.00,0.0713
1386.50,0.0708
1386.00,0.0703
1385.50,0.0699
1385.00,0.0695
1384.50,0.0691
1384.00,0.0687
1383.50,0.0683
1383.00,0.0680
1382.50,0.0676
1382.00,0.0673
1381.50,0.0670
1381.00,0.0666
1380.50,0.0663
1380.00,0.0661
1379.50,0.0658
1379.00,0.0656
1378.50,0.0654
1378.00,0.0653
1377.50,0.0651
1377.00,0.0650
1376.50,0.0649
1376.00,0.0648
1375.50,0.0647
1375.00,0.0646
1374.50,0.0646
1374.00,0.0645
1373.50,0.0645
1373.00,0.0645
1372.50,0.0645
1372.00,0.0644
1371.50,0.0643
1371.00,0.0642
1370.50,0.0641
1370.00,0.0639
1369.50,0.0637
1369.00,0.0635
1368.50,0.0633
1368.00,0.0632
1367.50,0.0631
1367.00,0.0629
1366.50,0.0629
1366.00,0.0628
1365.50,0.0627
1365.00,0.0627
1364.50,0.0626
1364.00,0.0626
1363.50,0.0625
1363.00,0.0625
1362.50,0.0624
1362.00,0.0623
1361.50,0.0623
1361.00,0.0623
1360.50,0.0623
1360.00,0.0623
1359.50,0.0623
1359.00,0.0622
1358.50,0.0622
1358.00,0.0622
1357.50,0.0622
1357.00,0.0622
1356.50,0.0622
1356.00,0.0622
1355.50,0.0622
1355.00,0.0622
1354.50,0.0622
1354.00,0.0622
1353.50,0.0623
1353.00,0.0623
1352.50,0.0623
1352.00,0.0623
1351.50,0.0624
1351.00,0.0624
1350.50,0.0625
1350.00,0.0625
1349.50,0.0626
1349.00,0.0626
1348.50,0.0627
1348.00,0.0628
1347.50,0.0628
1347.00,0.0629
1346.50,0.0629
1346.00,0.0630
1345.50,0.0630
1345.00,0.0631
1344.50,0.0631
1344.00,0.0632
1343.50,0.0632
1343.00,0.0632
1342.50,0.0633
1342.00,0.0633
1341.50,0.0634
1341.00,0.0634
1340.50,0.0634
1340.00,0.0634
1339.50,0.0634
1339.00,0.0634
1338.50,0.0635
1338.00,0.0636
1337.50,0.0636
1337.00,0.0637
1336.50,0.0638
1336.00,0.0638
1335.50,0.0639
1335.00,0.0641
1334.50,0.0642
1334.00,0.0644
1333.50,0.0645
1333.00,0.0647
1332.50,0.0648
1332.00,0.0650
1331.50,0.0651
1331.00,0.0653
1330.50,0.0655
1330.00,0.0657
1329.50,0.0658
1329.00,0.0660
1328.50,0.0662
1328.00,0.0664
1327.50,0.0667
1327.00,0.0669
1326.50,0.0671
1326.00,0.0673
1325.50,0.0676
1325.00,0.0678
1324.50,0.0680
1324.00,0.0683
1323.50,0.0686
1323.00,0.0689
1322.50,0.0691
1322.00,0.0694
1321.50,0.0697
1321.00,0.0700
1320.50,0.0703
1320.00,0.0706
1319.50,0.0710
1319.00,0.0713
1318.50,0.0716
1318.00,0.0720
1317.50,0.0723
1317.00,0.0726
1316.50,0.0730
1316.00,0.0734
1315.50,0.0737
1315.00,0.0741
1314.50,0.0745
1314.00,0.0748
1313.50,0.0752
1313.00,0.0756
1312.50,0.0761
1312.00,0.0765
1311.50,0.0769
1311.00,0.0773
1310.50,0.0777
1310.00,0.0781
1309.50,0.0786
1309.00,0.0790
1308.50,0.0795
1308.00,0.0800
1307.50,0.0804
1307.00,0.0809
1306.50,0.0813
1306.00,0.0818
1305.50,0.0823
1305.00,0.0828
1304.50,0.0833
1304.00,0.0839
1303.50,0.0844
1303.00,0.0850
1302.50,0.0855
1302.00,0.0861
1301.50,0.0867
1301.00,0.0873
1300.50,0.0880
1300.00,0.0886
1299.50,0.0893
1299.00,0.0900
1298.50,0.0907
1298.00,0.0915
1297.50,0.0922
1297.00,0.0930
1296.50,0.0939
1296.00,0.0947
1295.50,0.0956
1295.00,0.0965
1294.50,0.0974
1294.00,0.0984
1293.50,0.0994
1293.00,0.1004
1292.50,0.1015
1292.00,0.1026
1291.50,0.1037
1291.00,0.1049
1290.50,0.1061
1290.00,0.1074
1289.50,0.1087
1289.00,0.1100
1288.50,0.1114
1288.00,0.1129
1287.50,0.1144
1287.00,0.1160
1286.50,0.1177
1286.00,0.1195
1285.50,0.1213
1285.00,0.1233
1284.50,0.1253
1284.00,0.1275
1283.50,0.1299
1283.00,0.1324
1282.50,0.1350
1282.00,0.1379
1281.50,0.1409
1281.00,0.1442
1280.50,0.1478
1280.00,0.1516
1279.50,0.1558
1279.00,0.1603
1278.50,0.1653
1278.00,0.1707
1277.50,0.1766
1277.00,0.1831
1276.50,0.1903
1276.00,0.1982
1275.50,0.2069
1275.00,0.2166
1274.50,0.2274
1274.00,0.2394
1273.50,0.2528
1273.00,0.2680
1272.50,0.2852
1272.00,0.3049
1271.50,0.3275
1271.00,0.3532
1270.50,0.3825
1270.00,0.4161
1269.50,0.4547
1269.00,0.4986
1268.50,0.5479
1268.00,0.6026
1267.50,0.6625
1267.00,0.7268
1266.50,0.7942
1266.00,0.8626
1265.50,0.9305
1265.00,0.9958
1264.50,1.0559
1264.00,1.1088
1263.50,1.1538
1263.00,1.1903
1262.50,1.2163
1262.00,1.2312
1261.50,1.2370
1261.00,1.2346
1260.50,1.2231
1260.00,1.2034
1259.50,1.1779
1259.00,1.1481
1258.50,1.1132
1258.00,1.0741
1257.50,1.0333
1257.00,0.9918
1256.50,0.9499
1256.00,0.9082
1255.50,0.8681
1255.00,0.8298
1254.50,0.7923
1254.00,0.7553
1253.50,0.7186
1253.00,0.6818
1252.50,0.6441
1252.00,0.6055
1251.50,0.5668
1251.00,0.5286
1250.50,0.4914
1250.00,0.4559
1249.50,0.4230
1249.00,0.3930
1248.50,0.3657
1248.00,0.3412
1247.50,0.3195
1247.00,0.3004
1246.50,0.2835
1246.00,0.2687
1245.50,0.2557
1245.00,0.2444
1244.50,0.2343
1244.00,0.2253
1243.50,0.2174
1243.00,0.2104
1242.50,0.2042
1242.00,0.1986
1241.50,0.1937
1241.00,0.1893
1240.50,0.1854
1240.00,0.1818
1239.50,0.1787
1239.00,0.1759
1238.50,0.1733
1238.00,0.1711
1237.50,0.1691
1237.00,0.1673
1236.50,0.1657
1236.00,0.1643
1235.50,0.1631
1235.00,0.1621
1234.50,0.1613
1234.00,0.1605
1233.50,0.1600
1233.00,0.1595
1232.50,0.1592
1232.00,0.1590
1231.50,0.1589
1231.00,0.1589
1230.50,0.1591
1230.00,0.1593
1229.50,0.1596
1229.00,0.1600
1228.50,0.1606
1228.00,0.1612
1227.50,0.1619
1227.00,0.1627
1226.50,0.1636
1226.00,0.1645
1225.50,0.1656
1225.00,0.1667
1224.50,0.1679
1224.00,0.1692
1223.50,0.1705
1223.00,0.1720
1222.50,0.1735
1222.00,0.1750
1221.50,0.1767
1221.00,0.1784
1220.50,0.1802
1220.00,0.1820
1219.50,0.1838
1219.00,0.1858
1218.50,0.1878
1218.00,0.1898
1217.50,0.1919
1217.00,0.1941
1216.50,0.1963
1216.00,0.1985
1215.50,0.2008
1215.00,0.2031
1214.50,0.2054
1214.00,0.2077
1213.50,0.2101
1213.00,0.2125
1212.50,0.2149
1212.00,0.2173
1211.50,0.2197
1211.00,0.2221
1210.50,0.2246
1210.00,0.2270
1209.50,0.2294
1209.00,0.2318
1208.50,0.2341
1208.00,0.2365
1207.50,0.2388
1207.00,0.2412
1206.50,0.2435
1206.00,0.2458
1205.50,0.2480
1205.00,0.2503
1204.50,0.2525
1204.00,0.2546
1203.50,0.2567
1203.00,0.2588
1202.50,0.2608
1202.00,0.2628
1201.50,0.2648
1201.00,0.2667
1200.50,0.2686
1200.00,0.2705
1199.50,0.2722
1199.00,0.2740
1198.50,0.2758
1198.00,0.2774
1197.50,0.2791
1197.00,0.2807
1196.50,0.2823
1196.00,0.2838
1195.50,0.2853
1195.00,0.2868
1194.50,0.2882
1194.00,0.2896
1193.50,0.2909
1193.00,0.2922
1192.50,0.2935
1192.00,0.2947
1191.50,0.2959
1191.00,0.2971
1190.50,0.2983
1190.00,0.2994
1189.50,0.3005
1189.00,0.3017
1188.50,0.3028
1188.00,0.3038
1187.50,0.3048
1187.00,0.3058
1186.50,0.3068
1186.00,0.3077
1185.50,0.3087
1185.00,0.3097
1184.50,0.3106
1184.00,0.3115
1183.50,0.3124
1183.00,0.3134
1182.50,0.3143
1182.00,0.3152
1181.50,0.3162
1181.00,0.3171
1180.50,0.3181
1180.00,0.3190
1179.50,0.3200
1179.00,0.3210
1178.50,0.3220
1178.00,0.3229
1177.50,0.3239
1177.00,0.3250
1176.50,0.3261
1176.00,0.3272
1175.50,0.3283
1175.00,0.3294
1174.50,0.3305
1174.00,0.3316
1173.50,0.3327
1173.00,0.3339
1172.50,0.3350
1172.00,0.3361
1171.50,0.3372
1171.00,0.3383
1170.50,0.3394
1170.00,0.3405
1169.50,0.3416
1169.00,0.3428
1168.50,0.3440
1168.00,0.3452
1167.50,0.3465
1167.00,0.3478
1166.50,0.3491
1166.00,0.3504
1165.50,0.3518
1165.00,0.3533
1164.50,0.3548
1164.00,0.3562
1163.50,0.3578
1163.00,0.3594
1162.50,0.3610
1162.00,0.3626
1161.50,0.3643
1161.00,0.3661
1160.50,0.3678
1160.00,0.3696
1159.50,0.3715
1159.00,0.3735
1158.50,0.3755
1158.00,0.3775
1157.50,0.3796
1157.00,0.3818
1156.50,0.3840
1156.00,0.3863
1155.50,0.3886
1155.00,0.3910
1154.50,0.3935
1154.00,0.3960
1153.50,0.3985
1153.00,0.4012
1152.50,0.4040
1152.00,0.4067
1151.50,0.4096
1151.00,0.4127
1150.50,0.4158
1150.00,0.4189
1149.50,0.4221
1149.00,0.4255
1148.50,0.4289
1148.00,0.4324
1147.50,0.4360
1147.00,0.4398
1146.50,0.4436
1146.00,0.4475
1145.50,0.4516
1145.00,0.4559
1144.50,0.4603
1144.00,0.4647
1143.50,0.4693
1143.00,0.4741
1142.50,0.4790
1142.00,0.4840
1141.50,0.4891
1141.00,0.4945
1140.50,0.5000
1140.00,0.5055
1139.50,0.5113
1139.00,0.5173
1138.50,0.5234
1138.00,0.5295
1137.50,0.5359
1137.00,0.5426
1136.50,0.5493
1136.00,0.5561
1135.50,0.5632
1135.00,0.5706
1134.50,0.5782
1134.00,0.5860
1133.50,0.5940
1133.00,0.6025
1132.50,0.6111
1132.00,0.6199
1131.50,0.6291
1131.00,0.6388
1130.50,0.6487
1130.00,0.6587
1129.50,0.6692
1129.00,0.6802
1128.50,0.6914
1128.00,0.7027
1127.50,0.7145
1127.00,0.7268
1126.50,0.7393
1126.00,0.7520
1125.50,0.7651
1125.00,0.7787
1124.50,0.7926
1124.00,0.8065
1123.50,0.8209
1123.00,0.8359
1122.50,0.8511
1122.00,0.8663
1121.50,0.8820
1121.00,0.8982
1120.50,0.9145
1120.00,0.9308
1119.50,0.9475
1119.00,0.9649
1118.50,0.9822
1118.00,0.9992
1117.50,1.0167
1117.00,1.0347
1116.50,1.0526
1116.00,1.0702
1115.50,1.0882
1115.00,1.1068
1114.50,1.1249
1114.00,1.1426
1113.50,1.1606
1113.00,1.1793
1112.50,1.1976
1112.00,1.2150
1111.50,1.2327
1111.00,1.2512
1110.50,1.2691
1110.00,1.2860
1109.50,1.3032
1109.00,1.3211
1108.50,1.3382
1108.00,1.3539
1107.50,1.3701
1107.00,1.3871
1106.50,1.4032
1106.00,1.4177
1105.50,1.4326
1105.00,1.4483
1104.50,1.4630
1104.00,1.4760
1103.50,1.4897
1103.00,1.5044
1102.50,1.5178
1102.00,1.5290
1101.50,1.5408
1101.00,1.5538
1100.50,1.5653
1100.00,1.5746
1099.50,1.5845
1099.00,1.5957
1098.50,1.6054
1098.00,1.6129
1097.50,1.6210
1097.00,1.6305
1096.50,1.6383
1096.00,1.6437
1095.50,1.6499
1095.00,1.6577
1094.50,1.6636
1094.00,1.6669
1093.50,1.6713
1093.00,1.6776
1092.50,1.6820
1092.00,1.6836
1091.50,1.6860
1091.00,1.6901
1090.50,1.6923
1090.00,1.6917
1089.50,1.6923
1089.00,1.6949
1088.50,1.6958
1088.00,1.6941
1087.50,1.6934
1087.00,1.6945
1086.50,1.6937
1086.00,1.6905
1085.50,1.6885
1085.00,1.6888
1084.50,1.6875
1084.00,1.6836
1083.50,1.6805
1083.00,1.6789
1082.50,1.6757
1082.00,1.6702
1081.50,1.6662
1081.00,1.6641
1080.50,1.6606
1080.00,1.6549
1079.50,1.6506
1079.00,1.6482
1078.50,1.6443
1078.00,1.6382
1077.50,1.6329
1077.00,1.6292
1076.50,1.6245
1076.00,1.6180
1075.50,1.6128
1075.00,1.6092
1074.50,1.6041
1074.00,1.5971
1073.50,1.5913
1073.00,1.5872
1072.50,1.5820
1072.00,1.5750
1071.50,1.5693
1071.00,1.5653
1070.50,1.5603
1070.00,1.5534
1069.50,1.5473
1069.00,1.5428
1068.50,1.5374
1068.00,1.5307
1067.50,1.5250
1067.00,1.5208
1066.50,1.5156
1066.00,1.5092
1065.50,1.5039
1065.00,1.4998
1064.50,1.4947
1064.00,1.4880
1063.50,1.4820
1063.00,1.4774
1062.50,1.4722
1062.00,1.4657
1061.50,1.4601
1061.00,1.4557
1060.50,1.4505
1060.00,1.4440
1059.50,1.4383
1059.00,1.4340
1058.50,1.4291
1058.00,1.4233
1057.50,1.4183
1057.00,1.4144
1056.50,1.4099
1056.00,1.4045
1055.50,1.3998
1055.00,1.3962
1054.50,1.3917
1054.00,1.3863
1053.50,1.3818
1053.00,1.3786
1052.50,1.3749
1052.00,1.3701
1051.50,1.3661
1051.00,1.3634
1050.50,1.3603
1050.00,1.3561
1049.50,1.3528
1049.00,1.3508
1048.50,1.3483
1048.00,1.3448
1047.50,1.3423
1047.00,1.3409
1046.50,1.3391
1046.00,1.3365
1045.50,1.3347
1045.00,1.3341
1044.50,1.3333
1044.00,1.3318
1043.50,1.3310
1043.00,1.3312
1042.50,1.3310
1042.00,1.3301
1041.50,1.3299
1041.00,1.3307
1040.50,1.3314
1040.00,1.3313
1039.50,1.3319
1039.00,1.3337
1038.50,1.3351
1038.00,1.3357
1037.50,1.3367
1037.00,1.3386
1036.50,1.3402
1036.00,1.3412
1035.50,1.3429
1035.00,1.3457
1034.50,1.3482
1034.00,1.3499
1033.50,1.3521
1033.00,1.3552
1032.50,1.3578
1032.00,1.3595
1031.50,1.3617
1031.00,1.3650
1030.50,1.3680
1030.00,1.3702
1029.50,1.3730
1029.00,1.3767
1028.50,1.3799
1028.00,1.3822
1027.50,1.3850
1027.00,1.3886
1026.50,1.3916
1026.00,1.3936
1025.50,1.3961
1025.00,1.3995
1024.50,1.4020
1024.00,1.4033
1023.50,1.4048
1023.00,1.4067
1022.50,1.4077
1022.00,1.4074
1021.50,1.4073
1021.00,1.4078
1020.50,1.4072
1020.00,1.4050
1019.50,1.4023
1019.00,1.3994
1018.50,1.3952
1018.00,1.3893
1017.50,1.3828
1017.00,1.3760
1016.50,1.3675
1016.00,1.3568
1015.50,1.3452
1015.00,1.3330
1014.50,1.3189
1014.00,1.3028
1013.50,1.2860
1013.00,1.2688
1012.50,1.2503
1012.00,1.2303
1011.50,1.2098
1011.00,1.1892
1010.50,1.1679
1010.00,1.1457
1009.50,1.1236
1009.00,1.1019
1008.50,1.0800
1008.00,1.0581
1007.50,1.0369
1007.00,1.0165
1006.50,0.9964
1006.00,0.9765
1005.50,0.9573
1005.00,0.9390
1004.50,0.9211
1004.00,0.9037
1003.50,0.8872
1003.00,0.8717
1002.50,0.8568
1002.00,0.8423
1001.50,0.8287
1001.00,0.8159
1000.50,0.8037
1000.00,0.7921
999.50,0.7812
999.00,0.7711
998.50,0.7615
998.00,0.7523
997.50,0.7437
997.00,0.7358
996.50,0.7284
996.00,0.7213
995.50,0.7147
995.00,0.7086
994.50,0.7028
994.00,0.6973
993.50,0.6922
993.00,0.6876
992.50,0.6832
992.00,0.6790
991.50,0.6752
991.00,0.6717
990.50,0.6684
990.00,0.6652
989.50,0.6623
989.00,0.6598
988.50,0.6574
988.00,0.6551
987.50,0.6531
987.00,0.6513
986.50,0.6497
986.00,0.6481
985.50,0.6466
985.00,0.6455
984.50,0.6444
984.00,0.6434
983.50,0.6426
983.00,0.6420
982.50,0.6415
982.00,0.6410
981.50,0.6408
981.00,0.6407
980.50,0.6407
980.00,0.6406
979.50,0.6407
979.00,0.6410
978.50,0.6414
978.00,0.6417
977.50,0.6423
977.00,0.6430
976.50,0.6438
976.00,0.6445
975.50,0.6454
975.00,0.6463
974.50,0.6473
974.00,0.6483
973.50,0.6495
973.00,0.6509
972.50,0.6523
972.00,0.6537
971.50,0.6552
971.00,0.6568
970.50,0.6584
970.00,0.6599
969.50,0.6616
969.00,0.6634
968.50,0.6652
968.00,0.6670
967.50,0.6690
967.00,0.6711
966.50,0.6733
966.00,0.6754
965.50,0.6776
965.00,0.6800
964.50,0.6824
964.00,0.6847
963.50,0.6871
963.00,0.6897
962.50,0.6923
962.00,0.6948
961.50,0.6974
961.00,0.7002
960.50,0.7029
960.00,0.7056
959.50,0.7084
959.00,0.7114
958.50,0.7143
958.00,0.7172
957.50,0.7201
957.00,0.7230
956.50,0.7258
956.00,0.7285
955.50,0.7312
955.00,0.7339
954.50,0.7366
954.00,0.7391
953.50,0.7416
953.00,0.7441
952.50,0.7466
952.00,0.7490
951.50,0.7515
951.00,0.7542
950.50,0.7569
950.00,0.7595
949.50,0.7622
949.00,0.7652
948.50,0.7682
948.00,0.7712
947.50,0.7743
947.00,0.7777
946.50,0.7810
946.00,0.7842
945.50,0.7875
945.00,0.7909
944.50,0.7944
944.00,0.7978
943.50,0.8013
943.00,0.8051
942.50,0.8089
942.00,0.8126
941.50,0.8164
941.00,0.8204
940.50,0.8243
940.00,0.8281
939.50,0.8320
939.00,0.8361
938.50,0.8402
938.00,0.8442
937.50,0.8484
937.00,0.8528
936.50,0.8572
936.00,0.8614
935.50,0.8657
935.00,0.8703
934.50,0.8749
934.00,0.8794
933.50,0.8841
933.00,0.8890
932.50,0.8940
932.00,0.8989
931.50,0.9039
931.00,0.9091
930.50,0.9143
930.00,0.9193
929.50,0.9244
929.00,0.9297
928.50,0.9350
928.00,0.9401
927.50,0.9453
927.00,0.9507
926.50,0.9561
926.00,0.9614
925.50,0.9667
925.00,0.9724
924.50,0.9779
924.00,0.9832
923.50,0.9887
923.00,0.9946
922.50,1.0006
922.00,1.0065
921.50,1.0127
921.00,1.0193
920.50,1.0259
920.00,1.0323
919.50,1.0390
919.00,1.0459
918.50,1.0528
918.00,1.0595
917.50,1.0662
917.00,1.0733
916.50,1.0801
916.00,1.0866
915.50,1.0932
915.00,1.1000
914.50,1.1065
914.00,1.1125
913.50,1.1185
913.00,1.1247
912.50,1.1306
912.00,1.1360
911.50,1.1413
911.00,1.1469
910.50,1.1522
910.00,1.1570
909.50,1.1618
909.00,1.1670
908.50,1.1720
908.00,1.1767
907.50,1.1815
907.00,1.1868
906.50,1.1920
906.00,1.1969
905.50,1.2022
905.00,1.2080
904.50,1.2136
904.00,1.2188
903.50,1.2244
903.00,1.2306
902.50,1.2369
902.00,1.2428
901.50,1.2492
901.00,1.2564
900.50,1.2635
900.00,1.2701
899.50,1.2771
899.00,1.2847
898.50,1.2923
898.00,1.2994
897.50,1.3067
897.00,1.3148
896.50,1.3226
896.00,1.3301
895.50,1.3379
895.00,1.3465
894.50,1.3548
894.00,1.3624
893.50,1.3700
893.00,1.3783
892.50,1.3863
892.00,1.3937
891.50,1.4017
891.00,1.4108
890.50,1.4195
890.00,1.4275
889.50,1.4358
889.00,1.4452
888.50,1.4545
888.00,1.4632
887.50,1.4723
887.00,1.4824
886.50,1.4922
886.00,1.5014
885.50,1.5114
885.00,1.5228
884.50,1.5342
884.00,1.5447
883.50,1.5556
883.00,1.5679
882.50,1.5798
882.00,1.5908
881.50,1.6024
881.00,1.6156
880.50,1.6286
880.00,1.6405
879.50,1.6529
879.00,1.6666
878.50,1.6798
878.00,1.6918
877.50,1.7050
877.00,1.7206
876.50,1.7359
876.00,1.7494
875.50,1.7635
875.00,1.7799
874.50,1.7962
874.00,1.8106
873.50,1.8255
873.00,1.8422
872.50,1.8577
872.00,1.8705
871.50,1.8839
871.00,1.8997
870.50,1.9146
870.00,1.9266
869.50,1.9387
869.00,1.9519
868.50,1.9629
868.00,1.9705
867.50,1.9792
867.00,1.9902
866.50,1.9990
866.00,2.0032
865.50,2.0074
865.00,2.0140
864.50,2.0192
864.00,2.0209
863.50,2.0233
863.00,2.0285
862.50,2.0324
862.00,2.0331
861.50,2.0349
861.00,2.0401
860.50,2.0443
860.00,2.0453
859.50,2.0474
859.00,2.0531
858.50,2.0581
858.00,2.0607
857.50,2.0653
857.00,2.0744
856.50,2.0834
856.00,2.0896
855.50,2.0968
855.00,2.1071
854.50,2.1155
854.00,2.1204
853.50,2.1274
853.00,2.1394
852.50,2.1512
852.00,2.1595
851.50,2.1692
851.00,2.1832
850.50,2.1956
850.00,2.2029
849.50,2.2114
849.00,2.2251
848.50,2.2383
848.00,2.2461
847.50,2.2531
847.00,2.2623
846.50,2.2684
846.00,2.2699
845.50,2.2739
845.00,2.2831
844.50,2.2895
844.00,2.2895
843.50,2.2906
843.00,2.2964
842.50,2.2990
842.00,2.2954
841.50,2.2946
841.00,2.3010
840.50,2.3063
840.00,2.3054
839.50,2.3058
839.00,2.3131
838.50,2.3203
838.00,2.3222
837.50,2.3245
837.00,2.3304
836.50,2.3331
836.00,2.3304
835.50,2.3312
835.00,2.3398
834.50,2.3482
834.00,2.3511
833.50,2.3557
833.00,2.3656
832.50,2.3721
832.00,2.3712
831.50,2.3737
831.00,2.3854
830.50,2.3961
830.00,2.3997
829.50,2.4060
829.00,2.4210
828.50,2.4331
828.00,2.4336
827.50,2.4337
827.00,2.4413
826.50,2.4454
826.00,2.4405
825.50,2.4403
825.00,2.4512
824.50,2.4595
824.00,2.4579
823.50,2.4601
823.00,2.4728
822.50,2.4812
822.00,2.4778
821.50,2.4790
821.00,2.4943
820.50,2.5090
820.00,2.5108
819.50,2.5099
819.00,2.5137
818.50,2.5131
818.00,2.5050
817.50,2.5031
817.00,2.5128
816.50,2.5199
816.00,2.5158
815.50,2.5117
815.00,2.5144
814.50,2.5132
814.00,2.5031
813.50,2.4971
813.00,2.5024
812.50,2.5089
812.00,2.5096
811.50,2.5116
811.00,2.5180
810.50,2.5185
810.00,2.5115
809.50,2.5115
809.00,2.5236
808.50,2.5315
808.00,2.5251
807.50,2.5178
807.00,2.5194
806.50,2.5216
806.00,2.5173
805.50,2.5148
805.00,2.5188
804.50,2.5190
804.00,2.5118
803.50,2.5101
803.00,2.5202
802.50,2.5296
802.00,2.5291
801.50,2.5282
801.00,2.5343
800.50,2.5383
800.00,2.5337
799.50,2.5299
799.00,2.5337
798.50,2.5360
798.00,2.5319
797.50,2.5315
797.00,2.5382
796.50,2.5400
796.00,2.5318
795.50,2.5266
795.00,2.5322
794.50,2.5379
794.00,2.5349
793.50,2.5316
793.00,2.5337
792.50,2.5325
792.00,2.5243
791.50,2.5206
791.00,2.5277
790.50,2.5349
790.00,2.5335
789.50,2.5315
789.00,2.5349
788.50,2.5354
788.00,2.5294
787.50,2.5264
787.00,2.5309
786.50,2.5328
786.00,2.5277
785.50,2.5258
785.00,2.5318
784.50,2.5349
784.00,2.5300
783.50,2.5274
783.00,2.5323
782.50,2.5341
782.00,2.5280
781.50,2.5263
781.00,2.5362
780.50,2.5455
780.00,2.5442
779.50,2.5416
779.00,2.5455
778.50,2.5476
778.00,2.5412
777.50,2.5345
777.00,2.5349
776.50,2.5360
776.00,2.5333
775.50,2.5342
775.00,2.5422
774.50,2.5476
774.00,2.5453
773.50,2.5448
773.00,2.5501
772.50,2.5507
772.00,2.5421
771.50,2.5365
771.00,2.5408
770.50,2.5447
770.00,2.5407
769.50,2.5363
769.00,2.5369
768.50,2.5347
768.00,2.5269
767.50,2.5246
767.00,2.5326
766.50,2.5393
766.00,2.5358
765.50,2.5303
765.00,2.5310
764.50,2.5333
764.00,2.5347
763.50,2.5426
763.00,2.5579
762.50,2.5655
762.00,2.5567
761.50,2.5447
761.00,2.5414
760.50,2.5408
760.00,2.5350
759.50,2.5295
759.00,2.5306
758.50,2.5333
758.00,2.5328
757.50,2.5344
757.00,2.5412
756.50,2.5462
756.00,2.5459
755.50,2.5481
755.00,2.5548
754.50,2.5560
754.00,2.5480
753.50,2.5425
753.00,2.5455
752.50,2.5478
752.00,2.5430
751.50,2.5394
751.00,2.5438
750.50,2.5490
750.00,2.5485
749.50,2.5487
749.00,2.5540
748.50,2.5560
748.00,2.5494
747.50,2.5442
747.00,2.5472
746.50,2.5510
746.00,2.5496
745.50,2.5498
745.00,2.5556
744.50,2.5598
744.00,2.5585
743.50,2.5590
743.00,2.5638
742.50,2.5634
742.00,2.5545
741.50,2.5484
741.00,2.5510
740.50,2.5524
740.00,2.5468
739.50,2.5447
739.00,2.5534
738.50,2.5627
738.00,2.5621
737.50,2.5575
737.00,2.5566
736.50,2.5559
736.00,2.5519
735.50,2.5498
735.00,2.5522
734.50,2.5514
734.00,2.5435
733.50,2.5375
733.00,2.5392
732.50,2.5415
732.00,2.5397
731.50,2.5401
731.00,2.5484
730.50,2.5579
730.00,2.5612
729.50,2.5627
729.00,2.5662
728.50,2.5646
728.00,2.5546
727.50,2.5464
727.00,2.5481
726.50,2.5534
726.00,2.5552
725.50,2.5574
725.00,2.5626
724.50,2.5640
724.00,2.5580
723.50,2.5531
723.00,2.5557
722.50,2.5594
722.00,2.5592
721.50,2.5612
721.00,2.5684
720.50,2.5734
720.00,2.5713
719.50,2.5704
719.00,2.5769
718.50,2.5826
718.00,2.5802
717.50,2.5762
717.00,2.5757
716.50,2.5724
716.00,2.5622
715.50,2.5524
715.00,2.5492
714.50,2.5481
714.00,2.5454
713.50,2.5466
713.00,2.5546
712.50,2.5605
712.00,2.5565
711.50,2.5486
711.00,2.5456
710.50,2.5473
710.00,2.5516
709.50,2.5613
709.00,2.5741
708.50,2.5789
708.00,2.5722
707.50,2.5670
707.00,2.5721
706.50,2.5788
706.00,2.5768
705.50,2.5716
705.00,2.5721
704.50,2.5754
704.00,2.5757
703.50,2.5754
703.00,2.5774
702.50,2.5782
702.00,2.5751
701.50,2.5731
701.00,2.5762
700.50,2.5783
700.00,2.5732
699.50,2.5674
699.00,2.5675
698.50,2.5694
698.00,2.5688
697.50,2.5692
697.00,2.5744
696.50,2.5799
696.00,2.5808
695.50,2.5808
695.00,2.5826
694.50,2.5822
694.00,2.5787
693.50,2.5791
693.00,2.5860
692.50,2.5910
692.00,2.5861
691.50,2.5753
691.00,2.5672
690.50,2.5613
690.00,2.5565
689.50,2.5576
689.00,2.5650
688.50,2.5693
688.00,2.5671
687.50,2.5685
687.00,2.5800
686.50,2.5909
686.00,2.5909
685.50,2.5859
685.00,2.5859
684.50,2.5884
684.00,2.5865
683.50,2.5844
683.00,2.5877
682.50,2.5923
682.00,2.5936
681.50,2.5954
681.00,2.5997
680.50,2.6013
680.00,2.5966
679.50,2.5904
679.00,2.5872
678.50,2.5841
678.00,2.5797
677.50,2.5798
677.00,2.5862
676.50,2.5903
676.00,2.5869
675.50,2.5819
675.00,2.5828
674.50,2.5868
674.00,2.5868
673.50,2.5844
673.00,2.5860
672.50,2.5897
672.00,2.5903
671.50,2.5892
671.00,2.5883
670.50,2.5855
670.00,2.5789
669.50,2.5753
669.00,2.5811
668.50,2.6081
668.00,2.6566
667.50,2.6765
667.00,2.6602
666.50,2.6356
666.00,2.6100
665.50,2.5925
665.00,2.5893
664.50,2.5961
664.00,2.6026
663.50,2.6039
663.00,2.6019
662.50,2.5983
662.00,2.5939
661.50,2.5910
661.00,2.5903
660.50,2.5893
660.00,2.5914
659.50,2.6029
659.00,2.6209
658.50,2.6312
658.00,2.6250
657.50,2.6102
657.00,2.5981
656.50,2.5899
656.00,2.5832
655.50,2.5809
655.00,2.5860
654.50,2.5939
654.00,2.5981
653.50,2.6000
653.00,2.6010
652.50,2.5975
652.00,2.5907
651.50,2.5882
651.00,2.5954
650.50,2.6070
650.00,2.6118
649.50,2.6090
649.00,2.6049
648.50,2.6004
648.00,2.5948
647.50,2.5910
647.00,2.5910
646.50,2.5924
646.00,2.5908
645.50,2.5874
645.00,2.5863
644.50,2.5875
644.00,2.5900
643.50,2.5936
643.00,2.5975
642.50,2.5974
642.00,2.5906
641.50,2.5809
641.00,2.5747
640.50,2.5756
640.00,2.5825
639.50,2.5936
639.00,2.6065
638.50,2.6172
638.00,2.6216
637.50,2.6156
637.00,2.6006
636.50,2.5809
636.00,2.5643
635.50,2.5619
635.00,2.5768
634.50,2.5974
634.00,2.6096
633.50,2.6109
633.00,2.6096
632.50,2.6121
632.00,2.6187
631.50,2.6259
631.00,2.6285
630.50,2.6219
630.00,2.6100
629.50,2.6020
629.00,2.6032
628.50,2.6081
628.00,2.6059
627.50,2.5957
627.00,2.5867
626.50,2.5857
626.00,2.5905
625.50,2.5947
625.00,2.5967
624.50,2.5980
624.00,2.5992
623.50,2.6025
623.00,2.6118
622.50,2.6256
622.00,2.6352
621.50,2.6346
621.00,2.6277
620.50,2.6241
620.00,2.6285
619.50,2.6352
619.00,2.6360
618.50,2.6275
618.00,2.6147
617.50,2.6067
617.00,2.6083
616.50,2.6181
616.00,2.6280
615.50,2.6279
615.00,2.6170
614.50,2.6039
614.00,2.5964
613.50,2.5973
613.00,2.6073
612.50,2.6228
612.00,2.6372
611.50,2.6443
611.00,2.6451
610.50,2.6476
610.00,2.6549
609.50,2.6602
609.00,2.6605
608.50,2.6595
608.00,2.6602
607.50,2.6610
607.00,2.6617
606.50,2.6673
606.00,2.6780
605.50,2.6829
605.00,2.6770
604.50,2.6643
604.00,2.6506
603.50,2.6409
603.00,2.6363
602.50,2.6362
602.00,2.6386
601.50,2.6308
601.00,2.6028
600.50,2.5831
600.00,2.6010
599.50,2.6326
599.00,2.6482
598.50,2.6539
598.00,2.6554
597.50,2.6492
597.00,2.6392
596.50,2.6348
596.00,2.6376
595.50,2.6400
595.00,2.6378
594.50,2.6342
594.00,2.6369
593.50,2.6456
593.00,2.6530
592.50,2.6550
592.00,2.6505
591.50,2.6387
591.00,2.6231
590.50,2.6100
590.00,2.6077
589.50,2.6164
589.00,2.6265
588.50,2.6341
588.00,2.6383
587.50,2.6365
587.00,2.6316
586.50,2.6312
586.00,2.6397
585.50,2.6536
585.00,2.6675
584.50,2.6761
584.00,2.6747
583.50,2.6651
583.00,2.6567
582.50,2.6621
582.00,2.6812
581.50,2.6971
581.00,2.6984
580.50,2.6892
580.00,2.6798
579.50,2.6690
579.00,2.6537
578.50,2.6421
578.00,2.6391
577.50,2.6381
577.00,2.6390
576.50,2.6499
576.00,2.6691
575.50,2.6803
575.00,2.6738
574.50,2.6628
574.00,2.6606
573.50,2.6638
573.00,2.6684
572.50,2.6770
572.00,2.6863
571.50,2.6842
571.00,2.6696
570.50,2.6555
570.00,2.6504
569.50,2.6490
569.00,2.6465
568.50,2.6476
568.00,2.6550
567.50,2.6589
567.00,2.6571
566.50,2.6586
566.00,2.6621
565.50,2.6549
565.00,2.6357
564.50,2.6220
564.00,2.6263
563.50,2.6393
563.00,2.6483
562.50,2.6573
562.00,2.6713
561.50,2.6774
561.00,2.6665
560.50,2.6526
560.00,2.6486
559.50,2.6509
559.00,2.6546
558.50,2.6617
558.00,2.6677
557.50,2.6580
557.00,2.6320
556.50,2.6086
556.00,2.6033
555.50,2.6106
555.00,2.6237
554.50,2.6470
554.00,2.6771
553.50,2.6919
553.00,2.6843
552.50,2.6759
552.00,2.6778
551.50,2.6724
551.00,2.6497
550.50,2.6286
550.00,2.6238
549.50,2.6245
549.00,2.6232
548.50,2.6323
548.00,2.6579
547.50,2.6757
547.00,2.6656
546.50,2.6492
546.00,2.6485
545.50,2.6564
545.00,2.6630
544.50,2.6724
544.00,2.6857
543.50,2.6895
543.00,2.6807
542.50,2.6768
542.00,2.6908
541.50,2.7071
541.00,2.7067
540.50,2.6984
540.00,2.6941
539.50,2.6854
539.00,2.6681
538.50,2.6608
538.00,2.6765
537.50,2.6946
537.00,2.6949
536.50,2.6900
536.00,2.6899
535.50,2.6831
535.00,2.6710
534.50,2.6712
534.00,2.6846
533.50,2.6850
533.00,2.6609
532.50,2.6426
532.00,2.6509
531.50,2.6685
531.00,2.6738
530.50,2.6715
530.00,2.6719
529.50,2.6653
529.00,2.6505
528.50,2.6471
528.00,2.6609
527.50,2.6649
527.00,2.6412
526.50,2.6159
526.00,2.6141
525.50,2.6254
525.00,2.6324
524.50,2.6407
524.00,2.6599
523.50,2.6689
523.00,2.6499
522.50,2.6275
522.00,2.6223
521.50,2.6191
521.00,2.6046
520.50,2.6032
520.00,2.6322
519.50,2.6605
519.00,2.6593
518.50,2.6483
518.00,2.6487
517.50,2.6444
517.00,2.6234
516.50,2.6143
516.00,2.6311
515.50,2.6406
515.00,2.6212
514.50,2.6011
514.00,2.6041
513.50,2.6133
513.00,2.6086
512.50,2.6023
512.00,2.6135
511.50,2.6240
511.00,2.6111
510.50,2.5978
510.00,2.6067
509.50,2.6222
509.00,2.6290
508.50,2.6412
508.00,2.6704
507.50,2.6832
507.00,2.6523
506.50,2.6224
506.00,2.6256
505.50,2.6348
505.00,2.6253
504.50,2.6170
504.00,2.6261
503.50,2.6297
503.00,2.6097
502.50,2.5951
502.00,2.6070
501.50,2.6141
501.00,2.5982
500.50,2.5953
500.00,2.6323
499.50,2.6809
499.00,2.6989
498.50,2.6947
498.00,2.6980
497.50,2.6886
497.00,2.6505
496.50,2.6299
496.00,2.6524
495.50,2.6786
495.00,2.6712
494.50,2.6621
494.00,2.6814
493.50,2.7046
493.00,2.7015
492.50,2.6898
492.00,2.6966
491.50,2.6906
491.00,2.6534
490.50,2.6314
490.00,2.6499
489.50,2.6674
489.00,2.6427
488.50,2.6142
488.00,2.6222
487.50,2.6440
487.00,2.6430
486.50,2.6385
486.00,2.6528
485.50,2.6501
485.00,2.6133
484.50,2.5835
484.00,2.5808
483.50,2.5654
483.00,2.5219
482.50,2.4989
482.00,2.5202
481.50,2.5557
481.00,2.5691
480.50,2.5769
480.00,2.6085
479.50,2.6332
479.00,2.6099
478.50,2.5849
478.00,2.5989
477.50,2.6116
477.00,2.5895
476.50,2.5783
476.00,2.6119
475.50,2.6477
475.00,2.6312
474.50,2.6050
474.00,2.6238
473.50,2.6561
473.00,2.6390
472.50,2.6111
472.00,2.6376
471.50,2.6643
471.00,2.6354
470.50,2.6125
470.00,2.6359
469.50,2.6619
469.00,2.6397
468.50,2.6070
468.00,2.6110
467.50,2.6265
467.00,2.6178
466.50,2.6282
466.00,2.6951
465.50,2.7529
465.00,2.7243
464.50,2.6727
464.00,2.6697
463.50,2.6817
463.00,2.6556
462.50,2.6350
462.00,2.6555
461.50,2.6519
461.00,2.5841
460.50,2.5412
460.00,2.5745
459.50,2.6338
459.00,2.6454
458.50,2.6411
458.00,2.6794
457.50,2.6867
457.00,2.5999
456.50,2.5331
456.00,2.5472
455.50,2.5827
455.00,2.5695
454.50,2.5513
454.00,2.5900
453.50,2.6460
453.00,2.6347
452.50,2.6045
452.00,2.6292
451.50,2.6643
451.00,2.6512
450.50,2.6434
450.00,2.6902
449.50,2.7149
449.00,2.6378
448.50,2.5671
448.00,2.5804
447.50,2.6262
447.00,2.6166
446.50,2.5905
446.00,2.6137
445.50,2.6298
445.00,2.5805
444.50,2.5449
444.00,2.5948
443.50,2.6820
443.00,2.6856
442.50,2.6447
442.00,2.6494
441.50,2.6606
441.00,2.6337
440.50,2.6398
440.00,2.7155
439.50,2.7582
439.00,2.6831
438.50,2.6090
438.00,2.6068
437.50,2.6010
437.00,2.5262
436.50,2.4789
436.00,2.5443
435.50,2.6799
435.00,2.7309
434.50,2.7120
434.00,2.7374
433.50,2.7600
433.00,2.6946
432.50,2.6230
432.00,2.6416
431.50,2.6908
431.00,2.6605
430.50,2.6209
430.00,2.6487
429.50,2.6645
429.00,2.5920
428.50,2.5361
428.00,2.5739
427.50,2.6407
427.00,2.6310
426.50,2.6175
426.00,2.6998
425.50,2.7637
425.00,2.6693
424.50,2.5898
424.00,2.6025
423.50,2.6125
423.00,2.5116
422.50,2.4304
422.00,2.4789
421.50,2.6039
421.00,2.6637
420.50,2.6868
420.00,2.8416
419.50,2.9419
419.00,2.6592
418.50,2.4763
418.00,2.5279
417.50,2.6201
417.00,2.5666
416.50,2.5169
416.00,2.5645
415.50,2.6451
415.00,2.6362
414.50,2.6352
414.00,2.7904
413.50,2.9940
413.00,2.8969
412.50,2.7449
412.00,2.7290
411.50,2.7072
411.00,2.5596
410.50,2.4622
410.00,2.5086
409.50,2.6253
409.00,2.6870
408.50,2.7305
408.00,2.9222
407.50,3.1440
407.00,2.8686
406.50,2.6043
406.00,2.5277
405.50,2.5058
405.00,2.4399
404.50,2.4205
404.00,2.5202
403.50,2.6267
403.00,2.6751
402.50,2.7080
402.00,2.7440
401.50,2.7056
401.00,2.4479
400.50,2.2778
400.00,2.2728
